BeginSample
	_SampleName, "15-0291-Pull with PreLoad.mss"
	_MethodName, "Pull Test with PreLoad.msm"
	TestSpeed, 12.50,  "mm/min"
	LoadLimitHigh, 70000,  "N"
	LoadLimitLow, -70000,  "N"
	SampleInfo2, "Daksh",  ""
	SlackPreLoad, 20.000,  "N"
	SecondSpeed, 50.000,  "mm/min"
	SampleInfo1, "Pull with PreLoad",  ""
	TimeLimit, 10000,  "s"
	SampleID, "15-0291",  ""
	_SampleName, "15-0291-Pull with PreLoad",  ""
	BeginSpecimen
		SpecimanName, "311-6",  ""
		Comment, "",  ""
		Break, 413,  ""
		Displacement_Peak_Load, 30.115,  "mm"
		Displacement_Peak_Load2, 1.186,  "in"
		LoadCellCapacity, 200000.000,  "N"
		Peak, 360,  ""
		PeakLoad, 20613,  "N"
		PeakLoad2, 4634,  "lbf"
		BeginData
			_Load, _Time, SlackExt
			"N", "s", "mm"
			36.01, 0.200, 0.113
			69.25, 0.300, 0.201
			141.27, 0.400, 0.284
			210.98, 0.500, 0.367
			278.45, 0.600, 0.450
			343.35, 0.700, 0.533
			390.82, 0.800, 0.616
			430.71, 0.900, 0.700
			464.32, 1.000, 0.783
			497.10, 1.100, 0.866
			536.79, 1.200, 0.950
			572.34, 1.300, 1.033
			608.91, 1.400, 1.116
			647.68, 1.500, 1.200
			684.40, 1.600, 1.283
			720.05, 1.700, 1.366
			752.94, 1.800, 1.450
			780.61, 1.900, 1.533
			809.25, 2.000, 1.616
			834.01, 2.100, 1.700
			855.49, 2.200, 1.783
			874.57, 2.300, 1.866
			897.02, 2.400, 1.950
			924.23, 2.500, 2.033
			952.57, 2.600, 2.116
			977.58, 2.700, 2.200
			1002.23, 2.800, 2.283
			1022.18, 2.900, 2.366
			1052.66, 3.000, 2.450
			1155.37, 3.100, 2.533
			1269.53, 3.200, 2.616
			1375.71, 3.300, 2.700
			1481.43, 3.400, 2.783
			1592.73, 3.500, 2.866
			1707.91, 3.600, 2.950
			1823.35, 3.700, 3.033
			1942.47, 3.800, 3.116
			2058.63, 3.900, 3.200
			2176.88, 4.000, 3.283
			2298.72, 4.100, 3.366
			2432.67, 4.200, 3.450
			2563.10, 4.300, 3.533
			2695.62, 4.400, 3.616
			2823.95, 4.500, 3.700
			2954.68, 4.600, 3.783
			3089.76, 4.700, 3.866
			3227.19, 4.800, 3.950
			3359.72, 4.900, 4.033
			3484.98, 5.000, 4.116
			3606.86, 5.100, 4.200
			3729.15, 5.200, 4.283
			3855.54, 5.300, 4.366
			3981.00, 5.400, 4.450
			4107.34, 5.500, 4.533
			4232.24, 5.600, 4.616
			4358.73, 5.700, 4.700
			4482.81, 5.800, 4.783
			4607.87, 5.900, 4.866
			4732.67, 6.000, 4.950
			4855.88, 6.100, 5.033
			4976.23, 6.200, 5.116
			5097.40, 6.300, 5.200
			5218.92, 6.400, 5.283
			5339.43, 6.500, 5.366
			5457.42, 6.600, 5.450
			5573.17, 6.700, 5.533
			5687.74, 6.800, 5.616
			5797.50, 6.900, 5.700
			5910.49, 7.000, 5.783
			6023.68, 7.100, 5.866
			6135.48, 7.200, 5.950
			6247.09, 7.300, 6.033
			6358.08, 7.400, 6.116
			6466.31, 7.500, 6.200
			6572.18, 7.600, 6.283
			6678.26, 7.700, 6.366
			6786.44, 7.800, 6.449
			6895.02, 7.900, 6.533
			6998.49, 8.000, 6.616
			7100.84, 8.100, 6.700
			7184.82, 8.200, 6.783
			7286.45, 8.300, 6.866
			7388.24, 8.400, 6.949
			7480.10, 8.500, 7.033
			7579.83, 8.600, 7.116
			7676.25, 8.700, 7.199
			7772.00, 8.800, 7.283
			7865.13, 8.900, 7.366
			7958.84, 9.000, 7.449
			8049.01, 9.100, 7.533
			8137.24, 9.200, 7.616
			8221.53, 9.300, 7.699
			8303.72, 9.400, 7.783
			8384.28, 9.500, 7.866
			8466.17, 9.600, 7.949
			8545.34, 9.700, 8.033
			8624.88, 9.800, 8.116
			8703.49, 9.900, 8.200
			8783.03, 10.000, 8.283
			8860.36, 10.100, 8.366
			8938.05, 10.200, 8.449
			9015.18, 10.300, 8.533
			9091.34, 10.400, 8.616
			9168.37, 10.500, 8.699
			9244.58, 10.600, 8.783
			9318.59, 10.700, 8.866
			9391.68, 10.800, 8.949
			9464.21, 10.900, 9.033
			9537.35, 11.000, 9.116
			9602.51, 11.100, 9.199
			9674.88, 11.200, 9.283
			9747.26, 11.300, 9.366
			9820.19, 11.400, 9.449
			9892.31, 11.500, 9.533
			9962.02, 11.600, 9.616
			10031.89, 11.700, 9.699
			10099.97, 11.800, 9.783
			10171.83, 11.900, 9.866
			10243.33, 12.000, 9.949
			10310.08, 12.100, 10.033
			10377.65, 12.200, 10.116
			10443.83, 12.300, 10.199
			10509.50, 12.400, 10.283
			10575.02, 12.500, 10.366
			10640.13, 12.600, 10.449
			10705.35, 12.700, 10.533
			10768.16, 12.800, 10.616
			10831.07, 12.900, 10.699
			10893.21, 13.000, 10.783
			10956.23, 13.100, 10.866
			11017.24, 13.200, 10.949
			11077.65, 13.300, 11.033
			11138.05, 13.400, 11.116
			11200.20, 13.500, 11.199
			11261.42, 13.600, 11.283
			11321.01, 13.700, 11.366
			11380.39, 13.800, 11.449
			11438.85, 13.900, 11.533
			11497.16, 14.000, 11.616
			11554.39, 14.100, 11.699
			11612.55, 14.200, 11.783
			11669.99, 14.300, 11.866
			11728.65, 14.400, 11.949
			11785.07, 14.500, 12.033
			11842.15, 14.600, 12.116
			11897.90, 14.700, 12.199
			11953.80, 14.800, 12.283
			12010.73, 14.900, 12.366
			12064.64, 15.000, 12.449
			12119.88, 15.100, 12.533
			12174.56, 15.200, 12.616
			12226.67, 15.300, 12.699
			12280.74, 15.400, 12.783
			12331.94, 15.500, 12.866
			12383.90, 15.600, 12.949
			12435.20, 15.700, 13.033
			12485.12, 15.800, 13.116
			12535.81, 15.900, 13.199
			12582.92, 16.000, 13.283
			12629.87, 16.100, 13.366
			12676.41, 16.200, 13.449
			12721.93, 16.300, 13.533
			12766.20, 16.400, 13.616
			12809.24, 16.500, 13.699
			12852.05, 16.600, 13.783
			12894.97, 16.700, 13.866
			12933.79, 16.800, 13.949
			12970.36, 16.900, 14.033
			13008.05, 17.000, 14.116
			13043.45, 17.100, 14.199
			13078.74, 17.200, 14.283
			13113.26, 17.300, 14.366
			13153.36, 17.400, 14.449
			13206.40, 17.500, 14.532
			13262.97, 17.600, 14.616
			13318.01, 17.700, 14.699
			13372.89, 17.800, 14.783
			13427.92, 17.900, 14.866
			13482.70, 18.000, 14.949
			13541.72, 18.100, 15.033
			13595.63, 18.200, 15.116
			13650.31, 18.300, 15.199
			13703.45, 18.400, 15.282
			13758.13, 18.500, 15.366
			13811.83, 18.600, 15.449
			13866.25, 18.700, 15.533
			13921.29, 18.800, 15.616
			13973.92, 18.900, 15.699
			14025.94, 19.000, 15.783
			14078.62, 19.100, 15.866
			14130.64, 19.200, 15.949
			14182.40, 19.300, 16.032
			14234.52, 19.400, 16.116
			14286.74, 19.500, 16.199
			14336.50, 19.600, 16.283
			14388.67, 19.700, 16.366
			14440.08, 19.800, 16.449
			14490.92, 19.900, 16.532
			14542.93, 20.000, 16.616
			14592.75, 20.100, 16.699
			14643.80, 20.200, 16.783
			14694.79, 20.300, 16.866
			14744.35, 20.400, 16.949
			14795.14, 20.500, 17.033
			14846.03, 20.600, 17.116
			14896.31, 20.700, 17.199
			14945.98, 20.800, 17.282
			14994.77, 20.900, 17.366
			15044.74, 21.000, 17.449
			15091.95, 21.100, 17.532
			15141.05, 21.200, 17.616
			15190.20, 21.300, 17.699
			15238.59, 21.400, 17.782
			15286.87, 21.500, 17.866
			15335.57, 21.600, 17.949
			15382.36, 21.700, 18.032
			15430.29, 21.800, 18.116
			15475.86, 21.900, 18.199
			15522.51, 22.000, 18.282
			15569.72, 22.100, 18.366
			15616.01, 22.200, 18.449
			15663.98, 22.300, 18.533
			15711.75, 22.400, 18.616
			15757.17, 22.500, 18.699
			15803.10, 22.600, 18.782
			15850.31, 22.700, 18.866
			15897.47, 22.800, 18.949
			15944.53, 22.900, 19.032
			15990.10, 23.000, 19.116
			16036.18, 23.100, 19.199
			16083.39, 23.200, 19.282
			16132.80, 23.300, 19.366
			16183.69, 23.400, 19.449
			16231.46, 23.500, 19.532
			16281.18, 23.600, 19.616
			16329.41, 23.700, 19.699
			16378.56, 23.800, 19.782
			16428.94, 23.900, 19.866
			16477.43, 24.000, 19.949
			16527.20, 24.100, 20.033
			16575.07, 24.200, 20.116
			16624.33, 24.300, 20.199
			16673.27, 24.400, 20.282
			16720.58, 24.500, 20.366
			16768.82, 24.600, 20.449
			16815.97, 24.700, 20.532
			16865.74, 24.800, 20.616
			16917.19, 24.900, 20.699
			16963.38, 25.000, 20.782
			17009.21, 25.100, 20.866
			17055.19, 25.200, 20.949
			17101.17, 25.300, 21.032
			17147.31, 25.400, 21.116
			17192.83, 25.500, 21.199
			17238.96, 25.600, 21.282
			17286.02, 25.700, 21.366
			17331.39, 25.800, 21.449
			17376.96, 25.900, 21.532
			17423.09, 26.000, 21.616
			17467.03, 26.100, 21.699
			17510.81, 26.200, 21.782
			17554.29, 26.300, 21.866
			17598.78, 26.400, 21.949
			17644.00, 26.500, 22.032
			17687.83, 26.600, 22.116
			17731.67, 26.700, 22.199
			17775.86, 26.800, 22.282
			17819.43, 26.900, 22.366
			17863.52, 27.000, 22.449
			17904.95, 27.100, 22.532
			17947.81, 27.200, 22.616
			17991.29, 27.300, 22.699
			18033.64, 27.400, 22.782
			18075.99, 27.500, 22.866
			18117.52, 27.600, 22.949
			18160.49, 27.700, 23.032
			18203.14, 27.800, 23.116
			18244.52, 27.900, 23.199
			18286.61, 28.000, 23.282
			18328.40, 28.100, 23.366
			18368.25, 28.200, 23.449
			18409.83, 28.300, 23.532
			18449.83, 28.400, 23.616
			18491.05, 28.500, 23.699
			18530.95, 28.600, 23.782
			18571.04, 28.700, 23.866
			18612.37, 28.800, 23.949
			18652.98, 28.900, 24.032
			18691.86, 29.000, 24.116
			18732.41, 29.100, 24.199
			18770.88, 29.200, 24.282
			18810.47, 29.300, 24.366
			18849.85, 29.400, 24.449
			18889.59, 29.500, 24.532
			18929.43, 29.600, 24.616
			18964.98, 29.700, 24.699
			19004.57, 29.800, 24.782
			19043.44, 29.900, 24.866
			19082.47, 30.000, 24.949
			19120.93, 30.100, 25.032
			19157.55, 30.200, 25.116
			19194.17, 30.300, 25.199
			19231.36, 30.400, 25.282
			19269.26, 30.500, 25.366
			19307.26, 30.600, 25.449
			19343.78, 30.700, 25.532
			19381.94, 30.800, 25.615
			19418.71, 30.900, 25.699
			19455.33, 31.000, 25.782
			19490.52, 31.100, 25.866
			19525.61, 31.200, 25.949
			19559.42, 31.300, 26.032
			19593.84, 31.400, 26.116
			19626.47, 31.500, 26.199
			19658.18, 31.600, 26.282
			19689.08, 31.700, 26.366
			19716.64, 31.800, 26.449
			19743.75, 31.900, 26.532
			19773.47, 32.000, 26.616
			19799.86, 32.100, 26.699
			19831.26, 32.200, 26.782
			19866.97, 32.300, 26.866
			19906.60, 32.400, 26.949
			19944.76, 32.500, 27.032
			19980.67, 32.600, 27.116
			20016.73, 32.700, 27.199
			20050.64, 32.800, 27.282
			20086.08, 32.900, 27.366
			20119.94, 33.000, 27.449
			20152.62, 33.100, 27.532
			20184.85, 33.200, 27.616
			20216.66, 33.300, 27.699
			20248.93, 33.400, 27.782
			20274.35, 33.500, 27.865
			20294.81, 33.600, 27.949
			20306.83, 33.700, 28.032
			20313.53, 33.800, 28.116
			20315.53, 33.900, 28.199
			20317.47, 34.000, 28.282
			20331.28, 34.100, 28.366
			20356.50, 34.200, 28.449
			20377.93, 34.300, 28.532
			20392.30, 34.400, 28.616
			20396.14, 34.500, 28.699
			20387.65, 34.600, 28.782
			20373.48, 34.700, 28.866
			20362.23, 34.800, 28.949
			20363.25, 34.900, 29.032
			20386.73, 35.000, 29.115
			20422.02, 35.100, 29.199
			20459.30, 35.200, 29.282
			20491.01, 35.300, 29.366
			20516.28, 35.400, 29.449
			20535.21, 35.500, 29.532
			20548.76, 35.600, 29.616
			20554.54, 35.700, 29.699
			20556.38, 35.800, 29.782
			20571.11, 35.900, 29.865
			20593.05, 36.000, 29.949
			20606.81, 36.100, 30.032
			20613.31, 36.200, 30.115
			20605.84, 36.300, 30.199
			20587.33, 36.400, 30.282
			20554.28, 36.500, 30.366
			20489.58, 36.600, 30.449
			20399.56, 36.700, 30.532
			20300.59, 36.800, 30.616
			20200.80, 36.900, 30.699
			20112.63, 37.000, 30.782
			20039.08, 37.100, 30.865
			19980.77, 37.200, 30.949
			19904.71, 37.300, 31.032
			19821.80, 37.400, 31.116
			19758.48, 37.500, 31.199
			19710.45, 37.600, 31.282
			19667.29, 37.700, 31.366
			19619.62, 37.800, 31.449
			19561.00, 37.900, 31.532
			19494.31, 38.000, 31.615
			19410.32, 38.100, 31.699
			19305.21, 38.200, 31.782
			19188.96, 38.300, 31.866
			19061.45, 38.400, 31.949
			18898.85, 38.500, 32.032
			18727.76, 38.600, 32.116
			18605.31, 38.700, 32.199
			18507.98, 38.800, 32.282
			18404.71, 38.900, 32.366
			18287.33, 39.000, 32.449
			18163.91, 39.100, 32.532
			18034.71, 39.200, 32.616
			17888.53, 39.300, 32.699
			17738.16, 39.400, 32.782
			17592.44, 39.500, 32.866
			17456.39, 39.600, 32.949
			17340.03, 39.700, 33.032
			17248.63, 39.800, 33.116
			17176.26, 39.900, 33.199
			17115.60, 40.000, 33.282
			17059.79, 40.100, 33.366
			16995.96, 40.200, 33.449
			16924.56, 40.300, 33.532
			16856.23, 40.400, 33.616
			16796.49, 40.500, 33.699
			16740.28, 40.600, 33.782
			16676.80, 40.700, 33.866
			16601.36, 40.800, 33.949
			16524.95, 40.900, 34.033
			16447.36, 41.000, 34.116
			16377.33, 41.100, 34.199
			16306.85, 41.200, 34.282
			16231.72, 41.300, 34.366
			16149.47, 41.400, 34.449
			16048.71, 41.500, 34.532
			15921.41, 41.600, 34.616
			15779.73, 41.700, 34.699
			15607.72, 41.800, 34.782
			15362.32, 41.900, 34.866
			12035.95, 42.000, 34.950
			2061.29, 42.050, 34.991
		EndData
	EndSpecimen
	BeginSpecimen
		SpecimanName, "311-9",  ""
		Comment, "",  ""
		Break, 427,  ""
		Displacement_Peak_Load, 30.614,  "mm"
		Displacement_Peak_Load2, 1.205,  "in"
		LoadCellCapacity, 200000.000,  "N"
		Peak, 366,  ""
		PeakLoad, 19430,  "N"
		PeakLoad2, 4368,  "lbf"
		BeginData
			_Load, _Time, SlackExt
			"N", "s", "mm"
			25.98, 0.200, 0.111
			30.23, 0.300, 0.200
			35.91, 0.400, 0.283
			44.34, 0.500, 0.365
			51.25, 0.600, 0.448
			53.14, 0.700, 0.531
			35.24, 0.800, 0.615
			40.36, 0.900, 0.698
			53.24, 1.000, 0.782
			65.98, 1.100, 0.865
			72.22, 1.200, 0.948
			77.59, 1.300, 1.032
			88.79, 1.400, 1.115
			101.17, 1.500, 1.198
			120.09, 1.600, 1.281
			132.78, 1.700, 1.365
			145.46, 1.800, 1.448
			162.55, 1.900, 1.531
			185.05, 2.000, 1.615
			207.25, 2.100, 1.698
			232.67, 2.200, 1.782
			261.57, 2.300, 1.865
			288.78, 2.400, 1.948
			311.74, 2.500, 2.031
			340.33, 2.600, 2.115
			369.54, 2.700, 2.198
			400.02, 2.800, 2.282
			438.44, 2.900, 2.365
			475.01, 3.000, 2.448
			533.67, 3.100, 2.531
			596.58, 3.200, 2.615
			659.29, 3.300, 2.698
			731.92, 3.400, 2.781
			801.73, 3.500, 2.865
			876.31, 3.600, 2.948
			955.18, 3.700, 3.031
			1032.87, 3.800, 3.115
			1113.12, 3.900, 3.198
			1192.65, 4.000, 3.282
			1274.64, 4.100, 3.365
			1357.50, 4.200, 3.448
			1439.13, 4.300, 3.531
			1521.33, 4.400, 3.615
			1607.05, 4.500, 3.698
			1696.00, 4.600, 3.781
			1787.60, 4.700, 3.865
			1884.68, 4.800, 3.948
			1980.68, 4.900, 4.031
			2073.31, 5.000, 4.115
			2166.35, 5.100, 4.198
			2258.10, 5.200, 4.281
			2349.40, 5.300, 4.365
			2438.81, 5.400, 4.448
			2528.16, 5.500, 4.531
			2618.39, 5.600, 4.615
			2714.90, 5.700, 4.698
			2811.78, 5.800, 4.781
			2912.59, 5.900, 4.865
			3010.48, 6.000, 4.948
			3106.95, 6.100, 5.031
			3207.60, 6.200, 5.115
			3307.44, 6.300, 5.198
			3407.95, 6.400, 5.281
			3512.80, 6.500, 5.365
			3609.93, 6.600, 5.448
			3704.60, 6.700, 5.531
			3800.86, 6.800, 5.614
			3897.33, 6.900, 5.698
			3995.22, 7.000, 5.781
			4091.43, 7.100, 5.865
			4188.56, 7.200, 5.948
			4279.81, 7.300, 6.031
			4371.97, 7.400, 6.115
			4465.68, 7.500, 6.198
			4557.23, 7.600, 6.281
			4648.53, 7.700, 6.365
			4738.55, 7.800, 6.448
			4828.06, 7.900, 6.531
			4920.22, 8.000, 6.615
			5010.96, 8.100, 6.698
			5101.85, 8.200, 6.781
			5190.54, 8.300, 6.865
			5280.04, 8.400, 6.948
			5367.40, 8.500, 7.031
			5458.19, 8.600, 7.115
			5548.11, 8.700, 7.198
			5636.49, 8.800, 7.281
			5724.36, 8.900, 7.365
			5813.15, 9.000, 7.448
			5901.89, 9.100, 7.531
			5988.95, 9.200, 7.615
			6075.28, 9.300, 7.698
			6163.97, 9.400, 7.781
			6251.69, 9.500, 7.865
			6337.41, 9.600, 7.948
			6420.48, 9.700, 8.031
			6503.39, 9.800, 8.115
			6584.46, 9.900, 8.198
			6669.00, 10.000, 8.281
			6753.60, 10.100, 8.365
			6839.12, 10.200, 8.448
			6922.74, 10.300, 8.531
			7004.73, 10.400, 8.615
			7085.19, 10.500, 8.698
			7166.05, 10.600, 8.781
			7245.59, 10.700, 8.864
			7325.22, 10.800, 8.948
			7404.71, 10.900, 9.031
			7483.63, 11.000, 9.114
			7561.22, 11.100, 9.198
			7636.71, 11.200, 9.281
			7712.72, 11.300, 9.365
			7789.33, 11.400, 9.448
			7864.62, 11.500, 9.531
			7939.61, 11.600, 9.615
			8012.39, 11.700, 9.698
			8084.56, 11.800, 9.781
			8155.50, 11.900, 9.864
			8226.39, 12.000, 9.948
			8297.07, 12.100, 10.031
			8366.48, 12.200, 10.114
			8435.66, 12.300, 10.198
			8502.74, 12.400, 10.281
			8569.95, 12.500, 10.365
			8635.98, 12.600, 10.448
			8701.29, 12.700, 10.531
			8767.48, 12.800, 10.614
			8831.31, 12.900, 10.698
			8895.04, 13.000, 10.781
			8958.87, 13.100, 10.864
			9026.08, 13.200, 10.948
			9091.70, 13.300, 11.031
			9157.12, 13.400, 11.114
			9222.18, 13.500, 11.198
			9287.70, 13.600, 11.281
			9352.81, 13.700, 11.364
			9416.33, 13.800, 11.448
			9479.40, 13.900, 11.531
			9543.38, 14.000, 11.614
			9605.58, 14.100, 11.698
			9667.36, 14.200, 11.781
			9730.22, 14.300, 11.864
			9790.78, 14.400, 11.948
			9853.80, 14.500, 12.031
			9913.64, 14.600, 12.114
			9973.74, 14.700, 12.198
			10033.37, 14.800, 12.281
			10093.37, 14.900, 12.364
			10153.98, 15.000, 12.448
			10216.53, 15.100, 12.531
			10275.10, 15.200, 12.614
			10332.48, 15.300, 12.698
			10391.10, 15.400, 12.781
			10448.28, 15.500, 12.864
			10504.75, 15.600, 12.948
			10562.90, 15.700, 13.031
			10619.62, 15.800, 13.114
			10675.78, 15.900, 13.198
			10731.28, 16.000, 13.281
			10787.08, 16.100, 13.364
			10842.06, 16.200, 13.448
			10897.00, 16.300, 13.531
			10951.98, 16.400, 13.614
			11006.81, 16.500, 13.698
			11061.69, 16.600, 13.781
			11115.50, 16.700, 13.864
			11169.46, 16.800, 13.948
			11222.50, 16.900, 14.031
			11276.97, 17.000, 14.114
			11331.39, 17.100, 14.198
			11384.18, 17.200, 14.281
			11437.27, 17.300, 14.364
			11489.69, 17.400, 14.448
			11543.40, 17.500, 14.531
			11597.41, 17.600, 14.614
			11649.89, 17.700, 14.698
			11701.03, 17.800, 14.781
			11753.92, 17.900, 14.864
			11805.12, 18.000, 14.948
			11858.93, 18.100, 15.031
			11909.20, 18.200, 15.114
			11961.83, 18.300, 15.198
			12014.11, 18.400, 15.281
			12066.48, 18.500, 15.364
			12120.08, 18.600, 15.448
			12171.23, 18.700, 15.531
			12222.38, 18.800, 15.614
			12273.99, 18.900, 15.698
			12324.32, 19.000, 15.781
			12375.72, 19.100, 15.864
			12426.81, 19.200, 15.948
			12478.93, 19.300, 16.031
			12530.18, 19.400, 16.114
			12581.13, 19.500, 16.198
			12632.27, 19.600, 16.281
			12683.98, 19.700, 16.364
			12734.62, 19.800, 16.448
			12785.66, 19.900, 16.531
			12836.81, 20.000, 16.614
			12887.70, 20.100, 16.698
			12939.36, 20.200, 16.781
			12989.49, 20.300, 16.864
			13040.07, 20.400, 16.948
			13088.81, 20.500, 17.031
			13138.53, 20.600, 17.114
			13190.65, 20.700, 17.197
			13240.42, 20.800, 17.281
			13290.54, 20.900, 17.364
			13340.97, 21.000, 17.448
			13389.82, 21.100, 17.531
			13439.84, 21.200, 17.614
			13490.01, 21.300, 17.698
			13545.00, 21.400, 17.781
			13594.76, 21.500, 17.864
			13643.87, 21.600, 17.948
			13694.25, 21.700, 18.031
			13739.77, 21.800, 18.114
			13789.79, 21.900, 18.198
			13838.89, 22.000, 18.281
			13886.97, 22.100, 18.364
			13936.28, 22.200, 18.448
			13985.43, 22.300, 18.531
			14033.56, 22.400, 18.614
			14082.40, 22.500, 18.697
			14131.04, 22.600, 18.781
			14180.30, 22.700, 18.864
			14228.28, 22.800, 18.948
			14275.89, 22.900, 19.031
			14324.48, 23.000, 19.114
			14370.36, 23.100, 19.197
			14416.91, 23.200, 19.281
			14465.34, 23.300, 19.364
			14511.99, 23.400, 19.447
			14559.30, 23.500, 19.531
			14606.36, 23.600, 19.614
			14653.21, 23.700, 19.697
			14702.41, 23.800, 19.781
			14747.83, 23.900, 19.864
			14793.97, 24.000, 19.948
			14840.36, 24.100, 20.031
			14887.36, 24.200, 20.114
			14934.37, 24.300, 20.198
			14979.99, 24.400, 20.281
			15026.84, 24.500, 20.364
			15073.54, 24.600, 20.447
			15120.03, 24.700, 20.531
			15167.80, 24.800, 20.614
			15213.32, 24.900, 20.697
			15259.51, 25.000, 20.781
			15307.33, 25.100, 20.864
			15352.85, 25.200, 20.947
			15399.81, 25.300, 21.031
			15444.56, 25.400, 21.114
			15490.95, 25.500, 21.197
			15537.09, 25.600, 21.281
			15583.37, 25.700, 21.364
			15628.90, 25.800, 21.448
			15674.06, 25.900, 21.531
			15719.37, 26.000, 21.614
			15765.20, 26.100, 21.697
			15808.58, 26.200, 21.781
			15854.66, 26.300, 21.864
			15899.57, 26.400, 21.947
			15944.93, 26.500, 22.031
			15989.07, 26.600, 22.114
			16033.27, 26.700, 22.197
			16077.97, 26.800, 22.281
			16123.18, 26.900, 22.364
			16167.12, 27.000, 22.447
			16210.18, 27.100, 22.531
			16254.63, 27.200, 22.614
			16297.60, 27.300, 22.697
			16342.35, 27.400, 22.781
			16386.23, 27.500, 22.864
			16428.43, 27.600, 22.947
			16470.93, 27.700, 23.031
			16513.34, 27.800, 23.114
			16558.24, 27.900, 23.197
			16601.26, 28.000, 23.281
			16642.79, 28.100, 23.364
			16684.83, 28.200, 23.447
			16726.16, 28.300, 23.531
			16769.33, 28.400, 23.614
			16810.76, 28.500, 23.697
			16852.34, 28.600, 23.781
			16899.96, 28.700, 23.864
			16941.64, 28.800, 23.947
			16984.97, 28.900, 24.031
			17024.81, 29.000, 24.114
			17065.88, 29.100, 24.197
			17107.57, 29.200, 24.281
			17148.69, 29.300, 24.364
			17189.45, 29.400, 24.447
			17231.04, 29.500, 24.531
			17269.80, 29.600, 24.614
			17310.47, 29.700, 24.697
			17346.22, 29.800, 24.781
			17384.53, 29.900, 24.864
			17424.53, 30.000, 24.947
			17462.84, 30.100, 25.031
			17503.75, 30.200, 25.114
			17541.60, 30.300, 25.197
			17580.17, 30.400, 25.281
			17619.45, 30.500, 25.365
			17657.71, 30.600, 25.447
			17696.68, 30.700, 25.531
			17734.43, 30.800, 25.614
			17773.45, 30.900, 25.697
			17811.15, 31.000, 25.781
			17846.90, 31.100, 25.864
			17882.50, 31.200, 25.947
			17919.53, 31.300, 26.031
			17955.90, 31.400, 26.114
			17994.56, 31.500, 26.197
			18030.47, 31.600, 26.281
			18067.09, 31.700, 26.364
			18103.76, 31.800, 26.447
			18138.70, 31.900, 26.531
			18173.94, 32.000, 26.614
			18208.10, 32.100, 26.697
			18240.38, 32.200, 26.781
			18273.52, 32.300, 26.864
			18305.85, 32.400, 26.947
			18339.50, 32.500, 27.031
			18372.08, 32.600, 27.114
			18402.77, 32.700, 27.197
			18433.97, 32.800, 27.281
			18464.35, 32.900, 27.364
			18494.58, 33.000, 27.447
			18524.45, 33.100, 27.531
			18549.31, 33.200, 27.614
			18576.72, 33.300, 27.697
			18602.40, 33.400, 27.781
			18625.21, 33.500, 27.864
			18646.03, 33.600, 27.947
			18661.88, 33.700, 28.031
			18674.57, 33.800, 28.114
			18688.27, 33.900, 28.197
			18703.01, 34.000, 28.281
			18720.19, 34.100, 28.364
			18739.73, 34.200, 28.447
			18764.48, 34.300, 28.531
			18792.51, 34.400, 28.614
			18822.28, 34.500, 28.697
			18853.28, 34.600, 28.781
			18884.07, 34.700, 28.864
			18918.08, 34.800, 28.947
			18951.12, 34.900, 29.031
			18986.41, 35.000, 29.114
			19020.43, 35.100, 29.197
			19054.23, 35.200, 29.281
			19088.14, 35.300, 29.364
			19121.24, 35.400, 29.447
			19153.82, 35.500, 29.531
			19187.52, 35.600, 29.614
			19220.16, 35.700, 29.697
			19252.07, 35.800, 29.781
			19282.66, 35.900, 29.864
			19312.43, 36.000, 29.947
			19337.74, 36.100, 30.031
			19359.28, 36.200, 30.114
			19378.56, 36.300, 30.197
			19395.34, 36.400, 30.281
			19408.84, 36.500, 30.364
			19419.58, 36.600, 30.447
			19427.51, 36.700, 30.531
			19430.27, 36.800, 30.614
			19426.74, 36.900, 30.697
			19413.75, 37.000, 30.781
			19388.94, 37.100, 30.864
			19351.60, 37.200, 30.947
			19301.12, 37.300, 31.031
			19237.03, 37.400, 31.114
			19166.55, 37.500, 31.197
			19090.70, 37.600, 31.281
			19021.19, 37.700, 31.364
			18952.30, 37.800, 31.447
			18892.40, 37.900, 31.531
			18844.07, 38.000, 31.614
			18788.98, 38.100, 31.697
			18736.40, 38.200, 31.781
			18687.92, 38.300, 31.864
			18643.93, 38.400, 31.947
			18596.36, 38.500, 32.031
			18543.53, 38.600, 32.114
			18499.29, 38.700, 32.197
			18453.05, 38.800, 32.281
			18404.87, 38.900, 32.364
			18361.49, 39.000, 32.447
			18320.99, 39.100, 32.531
			18274.90, 39.200, 32.614
			18226.52, 39.300, 32.697
			18175.42, 39.400, 32.781
			18124.48, 39.500, 32.864
			18063.51, 39.600, 32.947
			17996.92, 39.700, 33.031
			17930.12, 39.800, 33.114
			17870.58, 39.900, 33.197
			17817.44, 40.000, 33.281
			17766.09, 40.100, 33.364
			17716.94, 40.200, 33.447
			17670.80, 40.300, 33.531
			17618.68, 40.400, 33.614
			17558.58, 40.500, 33.697
			17497.51, 40.600, 33.781
			17453.58, 40.700, 33.864
			17410.87, 40.800, 33.947
			17359.93, 40.900, 34.031
			17311.39, 41.000, 34.114
			17256.15, 41.100, 34.197
			17195.69, 41.200, 34.281
			17130.02, 41.300, 34.364
			17066.65, 41.400, 34.447
			17002.87, 41.500, 34.531
			16935.35, 41.600, 34.614
			16868.04, 41.700, 34.697
			16811.32, 41.800, 34.781
			16757.21, 41.900, 34.864
			16688.67, 42.000, 34.947
			16618.14, 42.100, 35.031
			16551.08, 42.200, 35.114
			16488.32, 42.300, 35.197
			16424.08, 42.400, 35.281
			16352.43, 42.500, 35.364
			16276.22, 42.600, 35.447
			16188.60, 42.700, 35.531
			16095.26, 42.800, 35.614
			15994.75, 42.900, 35.697
			15868.01, 43.000, 35.781
			15714.36, 43.100, 35.864
			15511.97, 43.200, 35.947
			15223.60, 43.300, 36.031
			14731.57, 43.400, 36.114
			1807.55, 43.500, 36.198
		EndData
	EndSpecimen
	BeginSpecimen
		SpecimanName, "311-4",  ""
		Comment, "",  ""
		Break, 422,  ""
		Displacement_Peak_Load, 30.530,  "mm"
		Displacement_Peak_Load2, 1.202,  "in"
		LoadCellCapacity, 200000.000,  "N"
		Peak, 365,  ""
		PeakLoad, 20384,  "N"
		PeakLoad2, 4583,  "lbf"
		BeginData
			_Load, _Time, SlackExt
			"N", "s", "mm"
			48.49, 0.200, 0.111
			71.81, 0.300, 0.200
			94.62, 0.400, 0.283
			119.22, 0.500, 0.365
			139.22, 0.600, 0.448
			161.11, 0.700, 0.531
			179.42, 0.800, 0.615
			191.96, 0.900, 0.698
			204.59, 1.000, 0.782
			211.95, 1.100, 0.865
			218.55, 1.200, 0.948
			226.22, 1.300, 1.031
			235.48, 1.400, 1.115
			241.26, 1.500, 1.198
			253.74, 1.600, 1.281
			265.86, 1.700, 1.365
			279.26, 1.800, 1.448
			293.89, 1.900, 1.532
			310.62, 2.000, 1.615
			324.27, 2.100, 1.698
			342.84, 2.200, 1.781
			361.51, 2.300, 1.865
			380.13, 2.400, 1.948
			400.18, 2.500, 2.031
			419.97, 2.600, 2.115
			448.72, 2.700, 2.198
			466.98, 2.800, 2.282
			501.14, 2.900, 2.365
			528.61, 3.000, 2.448
			555.41, 3.100, 2.531
			585.84, 3.200, 2.615
			663.33, 3.300, 2.698
			751.51, 3.400, 2.781
			840.81, 3.500, 2.865
			933.03, 3.600, 2.948
			1015.79, 3.700, 3.031
			1104.63, 3.800, 3.115
			1196.34, 3.900, 3.198
			1287.79, 4.000, 3.281
			1375.86, 4.100, 3.365
			1470.13, 4.200, 3.448
			1567.36, 4.300, 3.531
			1664.39, 4.400, 3.615
			1763.31, 4.500, 3.698
			1860.84, 4.600, 3.781
			1962.52, 4.700, 3.865
			2063.23, 4.800, 3.948
			2164.04, 4.900, 4.031
			2267.06, 5.000, 4.115
			2370.73, 5.100, 4.198
			2481.41, 5.200, 4.281
			2586.93, 5.300, 4.365
			2697.72, 5.400, 4.448
			2806.05, 5.500, 4.531
			2914.48, 5.600, 4.615
			3021.27, 5.700, 4.698
			3130.01, 5.800, 4.781
			3241.36, 5.900, 4.865
			3353.43, 6.000, 4.948
			3473.06, 6.100, 5.031
			3591.82, 6.200, 5.115
			3707.83, 6.300, 5.198
			3822.45, 6.400, 5.281
			3937.07, 6.500, 5.365
			4042.99, 6.600, 5.448
			4157.26, 6.700, 5.531
			4270.75, 6.800, 5.615
			4385.78, 6.900, 5.698
			4503.17, 7.000, 5.781
			4620.09, 7.100, 5.865
			4738.19, 7.200, 5.948
			4851.43, 7.300, 6.031
			4964.31, 7.400, 6.115
			5072.44, 7.500, 6.198
			5181.79, 7.600, 6.281
			5291.96, 7.700, 6.365
			5400.80, 7.800, 6.448
			5510.51, 7.900, 6.531
			5619.56, 8.000, 6.615
			5727.17, 8.100, 6.698
			5834.69, 8.200, 6.781
			5938.72, 8.300, 6.864
			6039.94, 8.400, 6.948
			6139.42, 8.500, 7.031
			6237.47, 8.600, 7.115
			6337.57, 8.700, 7.198
			6428.46, 8.800, 7.281
			6524.82, 8.900, 7.364
			6624.15, 9.000, 7.448
			6721.17, 9.100, 7.531
			6819.43, 9.200, 7.614
			6916.91, 9.300, 7.698
			7011.43, 9.400, 7.781
			7104.57, 9.500, 7.864
			7197.05, 9.600, 7.948
			7288.04, 9.700, 8.031
			7379.23, 9.800, 8.115
			7469.05, 9.900, 8.198
			7557.79, 10.000, 8.281
			7644.95, 10.100, 8.364
			7730.00, 10.200, 8.448
			7815.32, 10.300, 8.531
			7899.76, 10.400, 8.614
			7984.00, 10.500, 8.698
			8068.39, 10.600, 8.781
			8150.74, 10.700, 8.864
			8231.76, 10.800, 8.948
			8314.72, 10.900, 9.031
			8394.66, 11.000, 9.114
			8476.60, 11.100, 9.198
			8554.70, 11.200, 9.281
			8633.27, 11.300, 9.364
			8712.75, 11.400, 9.448
			8791.21, 11.500, 9.531
			8868.65, 11.600, 9.614
			8946.54, 11.700, 9.698
			9022.86, 11.800, 9.781
			9099.88, 11.900, 9.864
			9174.61, 12.000, 9.948
			9250.82, 12.100, 10.031
			9324.57, 12.200, 10.114
			9397.61, 12.300, 10.198
			9471.21, 12.400, 10.281
			9543.08, 12.500, 10.364
			9614.89, 12.600, 10.448
			9686.54, 12.700, 10.531
			9757.64, 12.800, 10.614
			9828.94, 12.900, 10.698
			9900.03, 13.000, 10.781
			9971.23, 13.100, 10.864
			10040.43, 13.200, 10.948
			10109.69, 13.300, 11.031
			10180.98, 13.400, 11.114
			10252.18, 13.500, 11.198
			10320.26, 13.600, 11.281
			10387.16, 13.700, 11.364
			10452.83, 13.800, 11.448
			10518.40, 13.900, 11.531
			10585.20, 14.000, 11.614
			10649.39, 14.100, 11.698
			10714.66, 14.200, 11.781
			10777.82, 14.300, 11.864
			10840.73, 14.400, 11.948
			10905.64, 14.500, 12.031
			10967.07, 14.600, 12.114
			11030.24, 14.700, 12.198
			11092.48, 14.800, 12.281
			11153.60, 14.900, 12.364
			11214.11, 15.000, 12.448
			11271.80, 15.100, 12.531
			11335.02, 15.200, 12.614
			11395.07, 15.300, 12.698
			11454.71, 15.400, 12.781
			11514.45, 15.500, 12.864
			11573.63, 15.600, 12.948
			11633.21, 15.700, 13.031
			11691.16, 15.800, 13.114
			11749.88, 15.900, 13.198
			11809.06, 16.000, 13.281
			11866.50, 16.100, 13.364
			11925.47, 16.200, 13.448
			11982.80, 16.300, 13.531
			12038.76, 16.400, 13.614
			12095.58, 16.500, 13.698
			12151.49, 16.600, 13.781
			12208.36, 16.700, 13.864
			12264.37, 16.800, 13.948
			12319.51, 16.900, 14.031
			12375.41, 17.000, 14.114
			12429.88, 17.100, 14.198
			12484.15, 17.200, 14.281
			12538.21, 17.300, 14.364
			12589.87, 17.400, 14.448
			12641.58, 17.500, 14.531
			12692.83, 17.600, 14.614
			12742.34, 17.700, 14.698
			12791.44, 17.800, 14.781
			12837.07, 17.900, 14.864
			12883.25, 18.000, 14.947
			12925.14, 18.100, 15.031
			12967.90, 18.200, 15.114
			13008.26, 18.300, 15.198
			13046.00, 18.400, 15.281
			13081.14, 18.500, 15.364
			13115.00, 18.600, 15.448
			13143.39, 18.700, 15.531
			13169.42, 18.800, 15.614
			13189.37, 18.900, 15.697
			13203.59, 19.000, 15.781
			13212.28, 19.100, 15.864
			13204.46, 19.200, 15.948
			13188.55, 19.300, 16.031
			13175.61, 19.400, 16.114
			13179.24, 19.500, 16.198
			13258.21, 19.600, 16.281
			13337.75, 19.700, 16.364
			13408.74, 19.800, 16.447
			13473.39, 19.900, 16.531
			13538.66, 20.000, 16.614
			13597.78, 20.100, 16.698
			13655.32, 20.200, 16.781
			13711.23, 20.300, 16.864
			13767.28, 20.400, 16.947
			13820.63, 20.500, 17.031
			13875.82, 20.600, 17.114
			13930.96, 20.700, 17.197
			13985.07, 20.800, 17.281
			14039.34, 20.900, 17.364
			14093.76, 21.000, 17.447
			14146.18, 21.100, 17.531
			14200.66, 21.200, 17.614
			14254.46, 21.300, 17.698
			14307.09, 21.400, 17.781
			14359.32, 21.500, 17.864
			14411.95, 21.600, 17.947
			14464.37, 21.700, 18.031
			14516.70, 21.800, 18.114
			14569.79, 21.900, 18.198
			14621.91, 22.000, 18.281
			14674.43, 22.100, 18.364
			14725.07, 22.200, 18.448
			14776.88, 22.300, 18.531
			14829.21, 22.400, 18.614
			14881.33, 22.500, 18.697
			14931.30, 22.600, 18.781
			14983.11, 22.700, 18.864
			15033.54, 22.800, 18.947
			15084.69, 22.900, 19.031
			15135.02, 23.000, 19.114
			15186.62, 23.100, 19.197
			15239.87, 23.200, 19.281
			15293.98, 23.300, 19.364
			15346.77, 23.400, 19.447
			15400.16, 23.500, 19.531
			15452.23, 23.600, 19.614
			15505.22, 23.700, 19.698
			15558.47, 23.800, 19.781
			15610.69, 23.900, 19.864
			15663.11, 24.000, 19.948
			15715.03, 24.100, 20.031
			15766.43, 24.200, 20.114
			15816.61, 24.300, 20.197
			15866.94, 24.400, 20.281
			15918.03, 24.500, 20.364
			15968.92, 24.600, 20.447
			16020.02, 24.700, 20.531
			16071.47, 24.800, 20.614
			16120.83, 24.900, 20.697
			16171.57, 25.000, 20.781
			16220.87, 25.100, 20.864
			16271.56, 25.200, 20.947
			16321.53, 25.300, 21.031
			16369.56, 25.400, 21.114
			16419.89, 25.500, 21.197
			16467.71, 25.600, 21.281
			16514.46, 25.700, 21.364
			16563.56, 25.800, 21.447
			16611.08, 25.900, 21.531
			16661.10, 26.000, 21.614
			16708.82, 26.100, 21.697
			16756.08, 26.200, 21.781
			16804.52, 26.300, 21.864
			16853.26, 26.400, 21.947
			16904.82, 26.500, 22.031
			16951.46, 26.600, 22.114
			16996.37, 26.700, 22.197
			17044.09, 26.800, 22.281
			17090.74, 26.900, 22.364
			17135.24, 27.000, 22.447
			17181.22, 27.100, 22.531
			17226.79, 27.200, 22.614
			17271.80, 27.300, 22.697
			17316.71, 27.400, 22.781
			17361.67, 27.500, 22.864
			17405.75, 27.600, 22.947
			17448.67, 27.700, 23.031
			17491.17, 27.800, 23.114
			17534.54, 27.900, 23.197
			17578.33, 28.000, 23.281
			17621.29, 28.100, 23.364
			17665.58, 28.200, 23.447
			17708.44, 28.300, 23.531
			17750.90, 28.400, 23.614
			17792.99, 28.500, 23.697
			17835.09, 28.600, 23.781
			17877.54, 28.700, 23.864
			17919.73, 28.800, 23.947
			17963.31, 28.900, 24.031
			18006.99, 29.000, 24.114
			18048.47, 29.100, 24.197
			18090.26, 29.200, 24.281
			18131.79, 29.300, 24.364
			18172.81, 29.400, 24.447
			18213.73, 29.500, 24.531
			18253.83, 29.600, 24.614
			18294.54, 29.700, 24.697
			18335.36, 29.800, 24.781
			18376.28, 29.900, 24.864
			18417.19, 30.000, 24.947
			18456.78, 30.100, 25.031
			18495.91, 30.200, 25.114
			18536.06, 30.300, 25.197
			18576.26, 30.400, 25.281
			18615.95, 30.500, 25.364
			18655.39, 30.600, 25.447
			18695.69, 30.700, 25.531
			18735.33, 30.800, 25.614
			18774.05, 30.900, 25.697
			18812.15, 31.000, 25.781
			18852.51, 31.100, 25.864
			18891.48, 31.200, 25.947
			18928.31, 31.300, 26.031
			18967.85, 31.400, 26.114
			19005.59, 31.500, 26.197
			19043.03, 31.600, 26.281
			19079.50, 31.700, 26.364
			19116.84, 31.800, 26.447
			19152.54, 31.900, 26.531
			19189.42, 32.000, 26.614
			19224.86, 32.100, 26.697
			19258.31, 32.200, 26.781
			19291.56, 32.300, 26.864
			19324.09, 32.400, 26.947
			19355.70, 32.500, 27.031
			19389.20, 32.600, 27.114
			19421.42, 32.700, 27.197
			19455.18, 32.800, 27.281
			19492.67, 32.900, 27.364
			19536.04, 33.000, 27.447
			19580.34, 33.100, 27.531
			19622.12, 33.200, 27.614
			19663.65, 33.300, 27.697
			19702.42, 33.400, 27.781
			19741.60, 33.500, 27.864
			19779.76, 33.600, 27.947
			19814.59, 33.700, 28.031
			19848.81, 33.800, 28.114
			19880.06, 33.900, 28.197
			19910.19, 34.000, 28.280
			19937.45, 34.100, 28.364
			19960.51, 34.200, 28.447
			19981.59, 34.300, 28.531
			19995.29, 34.400, 28.614
			20003.58, 34.500, 28.697
			20011.30, 34.600, 28.781
			20018.06, 34.700, 28.864
			20024.81, 34.800, 28.947
			20034.73, 34.900, 29.031
			20045.32, 35.000, 29.114
			20059.08, 35.100, 29.197
			20070.53, 35.200, 29.281
			20076.52, 35.300, 29.364
			20071.91, 35.400, 29.447
			20060.71, 35.500, 29.531
			20067.00, 35.600, 29.614
			20094.47, 35.700, 29.697
			20131.45, 35.800, 29.781
			20170.78, 35.900, 29.864
			20211.80, 36.000, 29.947
			20254.46, 36.100, 30.031
			20291.28, 36.200, 30.114
			20323.81, 36.300, 30.197
			20350.05, 36.400, 30.281
			20368.67, 36.500, 30.364
			20381.66, 36.600, 30.447
			20384.42, 36.700, 30.530
			20377.52, 36.800, 30.614
			20355.68, 36.900, 30.697
			20320.08, 37.000, 30.780
			20288.37, 37.100, 30.864
			20269.70, 37.200, 30.947
			20246.33, 37.300, 31.031
			20200.04, 37.400, 31.114
			20125.77, 37.500, 31.197
			20011.41, 37.600, 31.281
			19865.53, 37.700, 31.364
			19730.61, 37.800, 31.447
			19622.79, 37.900, 31.531
			19559.16, 38.000, 31.614
			19511.95, 38.100, 31.697
			19453.44, 38.200, 31.781
			19389.66, 38.300, 31.864
			19323.78, 38.400, 31.947
			19258.93, 38.500, 32.031
			19201.03, 38.600, 32.114
			19140.88, 38.700, 32.197
			19097.04, 38.800, 32.281
			19051.47, 38.900, 32.364
			18998.18, 39.000, 32.447
			18935.73, 39.100, 32.531
			18878.13, 39.200, 32.614
			18816.55, 39.300, 32.697
			18747.55, 39.400, 32.781
			18668.12, 39.500, 32.864
			18571.10, 39.600, 32.947
			18443.28, 39.700, 33.031
			18305.95, 39.800, 33.114
			18160.95, 39.900, 33.197
			18055.68, 40.000, 33.281
			17975.38, 40.100, 33.364
			17904.03, 40.200, 33.447
			17823.42, 40.300, 33.531
			17743.69, 40.400, 33.614
			17657.30, 40.500, 33.697
			17555.05, 40.600, 33.781
			17442.89, 40.700, 33.864
			17334.61, 40.800, 33.947
			17244.49, 40.900, 34.031
			17161.22, 41.000, 34.114
			17078.51, 41.100, 34.197
			17001.74, 41.200, 34.281
			16924.10, 41.300, 34.364
			16831.11, 41.400, 34.447
			16731.33, 41.500, 34.531
			16645.55, 41.600, 34.614
			16559.37, 41.700, 34.697
			16476.36, 41.800, 34.781
			16394.62, 41.900, 34.864
			16309.82, 42.000, 34.947
			16226.96, 42.100, 35.031
			16146.15, 42.200, 35.114
			16058.64, 42.300, 35.197
			15946.32, 42.400, 35.281
			15813.79, 42.500, 35.364
			15665.82, 42.600, 35.448
			15491.26, 42.700, 35.531
			15223.50, 42.800, 35.614
			12760.96, 42.900, 35.698
			1507.72, 42.960, 35.748
		EndData
	EndSpecimen
	BeginSpecimen
		SpecimanName, "311-7",  ""
		Comment, "",  ""
		Break, 425,  ""
		Displacement_Peak_Load, 30.672,  "mm"
		Displacement_Peak_Load2, 1.208,  "in"
		LoadCellCapacity, 200000.000,  "N"
		Peak, 367,  ""
		PeakLoad, 20267,  "N"
		PeakLoad2, 4556,  "lbf"
		BeginData
			_Load, _Time, SlackExt
			"N", "s", "mm"
			29.31, 0.200, 0.096
			46.29, 0.300, 0.175
			56.67, 0.400, 0.255
			69.30, 0.500, 0.339
			79.38, 0.600, 0.423
			89.81, 0.700, 0.506
			98.15, 0.800, 0.589
			105.11, 0.900, 0.673
			115.34, 1.000, 0.756
			121.88, 1.100, 0.839
			127.00, 1.200, 0.923
			131.76, 1.300, 1.006
			137.48, 1.400, 1.089
			134.21, 1.500, 1.173
			142.96, 1.600, 1.256
			153.44, 1.700, 1.339
			160.14, 1.800, 1.423
			164.64, 1.900, 1.506
			171.29, 2.000, 1.589
			176.87, 2.100, 1.673
			188.53, 2.200, 1.756
			221.06, 2.300, 1.839
			250.67, 2.400, 1.923
			287.65, 2.500, 2.006
			324.27, 2.600, 2.089
			362.33, 2.700, 2.173
			404.68, 2.800, 2.256
			454.24, 2.900, 2.339
			499.71, 3.000, 2.423
			545.18, 3.100, 2.506
			587.89, 3.200, 2.589
			636.02, 3.300, 2.673
			687.78, 3.400, 2.756
			743.22, 3.500, 2.839
			799.74, 3.600, 2.923
			860.40, 3.700, 3.006
			924.49, 3.800, 3.089
			991.85, 3.900, 3.173
			1059.88, 4.000, 3.256
			1133.53, 4.100, 3.339
			1211.07, 4.200, 3.423
			1294.90, 4.300, 3.506
			1382.05, 4.400, 3.589
			1471.46, 4.500, 3.672
			1564.24, 4.600, 3.756
			1656.97, 4.700, 3.839
			1745.97, 4.800, 3.923
			1833.99, 4.900, 4.006
			1924.68, 5.000, 4.089
			2015.87, 5.100, 4.173
			2108.96, 5.200, 4.256
			2200.46, 5.300, 4.339
			2292.89, 5.400, 4.423
			2386.59, 5.500, 4.506
			2484.89, 5.600, 4.589
			2584.53, 5.700, 4.673
			2687.64, 5.800, 4.756
			2792.80, 5.900, 4.839
			2901.74, 6.000, 4.922
			3012.94, 6.100, 5.006
			3125.87, 6.200, 5.089
			3241.46, 6.300, 5.173
			3356.80, 6.400, 5.256
			3477.97, 6.500, 5.339
			3596.17, 6.600, 5.423
			3711.82, 6.700, 5.506
			3826.85, 6.800, 5.589
			3941.72, 6.900, 5.673
			4055.07, 7.000, 5.756
			4166.16, 7.100, 5.839
			4280.73, 7.200, 5.923
			4394.48, 7.300, 6.006
			4509.20, 7.400, 6.089
			4617.58, 7.500, 6.173
			4726.94, 7.600, 6.256
			4836.60, 7.700, 6.339
			4945.44, 7.800, 6.422
			5053.62, 7.900, 6.506
			5160.05, 8.000, 6.589
			5265.83, 8.100, 6.672
			5374.77, 8.200, 6.756
			5478.60, 8.300, 6.839
			5584.68, 8.400, 6.922
			5686.97, 8.500, 7.006
			5789.47, 8.600, 7.089
			5890.49, 8.700, 7.172
			5990.02, 8.800, 7.256
			6088.48, 8.900, 7.339
			6183.00, 9.000, 7.422
			6278.85, 9.100, 7.506
			6373.73, 9.200, 7.589
			6463.08, 9.300, 7.672
			6556.63, 9.400, 7.756
			6645.83, 9.500, 7.839
			6736.57, 9.600, 7.922
			6830.63, 9.700, 8.006
			6921.72, 9.800, 8.089
			7009.80, 9.900, 8.172
			7097.05, 10.000, 8.256
			7182.42, 10.100, 8.339
			7267.73, 10.200, 8.422
			7351.77, 10.300, 8.506
			7435.55, 10.400, 8.589
			7519.07, 10.500, 8.673
			7599.01, 10.600, 8.756
			7679.73, 10.700, 8.839
			7759.36, 10.800, 8.922
			7839.00, 10.900, 9.006
			7918.58, 11.000, 9.089
			7997.40, 11.100, 9.172
			8074.28, 11.200, 9.256
			8152.38, 11.300, 9.339
			8227.77, 11.400, 9.422
			8299.99, 11.500, 9.506
			8374.51, 11.600, 9.589
			8446.12, 11.700, 9.672
			8519.26, 11.800, 9.756
			8589.28, 11.900, 9.839
			8658.69, 12.000, 9.922
			8727.07, 12.100, 10.005
			8795.45, 12.200, 10.089
			8864.86, 12.300, 10.172
			8932.48, 12.400, 10.256
			9001.48, 12.500, 10.339
			9068.84, 12.600, 10.422
			9134.51, 12.700, 10.506
			9199.57, 12.800, 10.589
			9263.35, 12.900, 10.672
			9327.23, 13.000, 10.756
			9390.30, 13.100, 10.839
			9453.31, 13.200, 10.922
			9517.96, 13.300, 11.006
			9580.67, 13.400, 11.089
			9643.27, 13.500, 11.172
			9704.19, 13.600, 11.256
			9764.80, 13.700, 11.339
			9826.74, 13.800, 11.422
			9888.93, 13.900, 11.506
			9951.49, 14.000, 11.589
			10013.63, 14.100, 11.672
			10074.75, 14.200, 11.756
			10136.28, 14.300, 11.839
			10203.08, 14.400, 11.922
			10265.22, 14.500, 12.006
			10325.58, 14.600, 12.089
			10385.27, 14.700, 12.172
			10444.91, 14.800, 12.256
			10504.70, 14.900, 12.339
			10564.95, 15.000, 12.422
			10623.05, 15.100, 12.505
			10681.62, 15.200, 12.589
			10738.95, 15.300, 12.672
			10798.38, 15.400, 12.756
			10855.67, 15.500, 12.839
			10912.90, 15.600, 12.922
			10969.88, 15.700, 13.006
			11026.50, 15.800, 13.089
			11084.55, 15.900, 13.172
			11140.15, 16.000, 13.255
			11197.69, 16.100, 13.339
			11255.03, 16.200, 13.422
			11310.93, 16.300, 13.506
			11367.04, 16.400, 13.589
			11423.92, 16.500, 13.672
			11479.92, 16.600, 13.756
			11535.88, 16.700, 13.839
			11591.07, 16.800, 13.922
			11646.87, 16.900, 14.005
			11702.11, 17.000, 14.089
			11756.43, 17.100, 14.172
			11812.48, 17.200, 14.256
			11867.01, 17.300, 14.339
			11922.04, 17.400, 14.422
			11976.92, 17.500, 14.506
			12032.88, 17.600, 14.589
			12087.14, 17.700, 14.672
			12141.46, 17.800, 14.755
			12196.80, 17.900, 14.839
			12251.38, 18.000, 14.922
			12306.93, 18.100, 15.005
			12361.19, 18.200, 15.089
			12416.64, 18.300, 15.172
			12470.29, 18.400, 15.255
			12526.91, 18.500, 15.339
			12581.94, 18.600, 15.422
			12636.77, 18.700, 15.505
			12691.86, 18.800, 15.589
			12747.10, 18.900, 15.672
			12801.26, 19.000, 15.755
			12857.53, 19.100, 15.839
			12912.41, 19.200, 15.922
			12967.70, 19.300, 16.005
			13021.25, 19.400, 16.089
			13076.64, 19.500, 16.172
			13132.14, 19.600, 16.255
			13186.40, 19.700, 16.339
			13241.13, 19.800, 16.422
			13295.35, 19.900, 16.505
			13349.72, 20.000, 16.589
			13404.09, 20.100, 16.672
			13457.13, 20.200, 16.755
			13514.87, 20.300, 16.839
			13573.18, 20.400, 16.922
			13627.50, 20.500, 17.005
			13682.33, 20.600, 17.089
			13735.68, 20.700, 17.172
			13789.48, 20.800, 17.255
			13842.06, 20.900, 17.339
			13895.92, 21.000, 17.422
			13950.80, 21.100, 17.505
			14004.20, 21.200, 17.589
			14057.70, 21.300, 17.672
			14111.71, 21.400, 17.755
			14164.85, 21.500, 17.839
			14218.92, 21.600, 17.922
			14271.24, 21.700, 18.005
			14325.05, 21.800, 18.089
			14377.01, 21.900, 18.172
			14429.34, 22.000, 18.255
			14481.46, 22.100, 18.339
			14533.88, 22.200, 18.422
			14585.90, 22.300, 18.505
			14638.12, 22.400, 18.589
			14691.31, 22.500, 18.672
			14743.99, 22.600, 18.755
			14797.09, 22.700, 18.839
			14848.59, 22.800, 18.922
			14899.64, 22.900, 19.006
			14951.86, 23.000, 19.089
			15002.29, 23.100, 19.172
			15054.87, 23.200, 19.255
			15105.45, 23.300, 19.339
			15157.21, 23.400, 19.422
			15208.82, 23.500, 19.505
			15258.59, 23.600, 19.589
			15310.30, 23.700, 19.672
			15360.27, 23.800, 19.755
			15410.75, 23.900, 19.839
			15461.69, 24.000, 19.922
			15511.15, 24.100, 20.005
			15563.73, 24.200, 20.089
			15613.50, 24.300, 20.172
			15663.62, 24.400, 20.255
			15714.06, 24.500, 20.339
			15763.00, 24.600, 20.422
			15814.10, 24.700, 20.505
			15863.66, 24.800, 20.589
			15910.87, 24.900, 20.672
			15960.33, 25.000, 20.755
			16008.20, 25.100, 20.839
			16056.03, 25.200, 20.922
			16103.59, 25.300, 21.005
			16153.21, 25.400, 21.089
			16202.82, 25.500, 21.172
			16250.34, 25.600, 21.255
			16298.00, 25.700, 21.339
			16345.42, 25.800, 21.422
			16392.47, 25.900, 21.505
			16437.64, 26.000, 21.589
			16486.02, 26.100, 21.672
			16532.21, 26.200, 21.755
			16580.39, 26.300, 21.839
			16626.06, 26.400, 21.922
			16672.76, 26.500, 22.005
			16719.56, 26.600, 22.089
			16765.65, 26.700, 22.172
			16812.85, 26.800, 22.255
			16861.65, 26.900, 22.339
			16911.93, 27.000, 22.422
			16957.35, 27.100, 22.505
			17001.64, 27.200, 22.589
			17048.54, 27.300, 22.672
			17094.78, 27.400, 22.755
			17139.89, 27.500, 22.838
			17186.03, 27.600, 22.922
			17230.73, 27.700, 23.005
			17276.35, 27.800, 23.089
			17320.90, 27.900, 23.172
			17366.22, 28.000, 23.255
			17411.33, 28.100, 23.339
			17455.42, 28.200, 23.422
			17501.20, 28.300, 23.505
			17545.54, 28.400, 23.589
			17590.19, 28.500, 23.672
			17635.41, 28.600, 23.755
			17679.14, 28.700, 23.839
			17725.12, 28.800, 23.922
			17768.49, 28.900, 24.005
			17812.43, 29.000, 24.089
			17856.16, 29.100, 24.172
			17899.68, 29.200, 24.255
			17942.65, 29.300, 24.338
			17985.87, 29.400, 24.422
			18028.01, 29.500, 24.505
			18071.49, 29.600, 24.589
			18114.20, 29.700, 24.672
			18157.11, 29.800, 24.755
			18198.90, 29.900, 24.839
			18239.20, 30.000, 24.922
			18280.12, 30.100, 25.005
			18320.68, 30.200, 25.088
			18361.39, 30.300, 25.172
			18402.21, 30.400, 25.255
			18442.46, 30.500, 25.339
			18480.77, 30.600, 25.423
			18489.52, 30.700, 25.505
			18360.68, 30.800, 25.589
			18511.30, 30.900, 25.672
			18590.17, 31.000, 25.755
			18642.75, 31.100, 25.838
			18687.35, 31.200, 25.922
			18728.27, 31.300, 26.005
			18769.45, 31.400, 26.089
			18809.75, 31.500, 26.172
			18845.91, 31.600, 26.255
			18883.45, 31.700, 26.338
			18919.77, 31.800, 26.422
			18955.93, 31.900, 26.505
			18990.81, 32.000, 26.589
			19024.62, 32.100, 26.672
			19058.94, 32.200, 26.755
			19093.82, 32.300, 26.839
			19127.48, 32.400, 26.922
			19161.13, 32.500, 27.005
			19193.56, 32.600, 27.088
			19225.83, 32.700, 27.172
			19255.04, 32.800, 27.255
			19282.35, 32.900, 27.338
			19310.64, 33.000, 27.422
			19335.24, 33.100, 27.505
			19360.20, 33.200, 27.589
			19383.21, 33.300, 27.672
			19405.62, 33.400, 27.755
			19428.63, 33.500, 27.839
			19448.68, 33.600, 27.922
			19468.17, 33.700, 28.005
			19487.45, 33.800, 28.088
			19503.10, 33.900, 28.172
			19516.91, 34.000, 28.255
			19526.17, 34.100, 28.338
			19532.87, 34.200, 28.422
			19544.33, 34.300, 28.505
			19563.82, 34.400, 28.588
			19591.95, 34.500, 28.672
			19619.51, 34.600, 28.755
			19647.19, 34.700, 28.838
			19674.81, 34.800, 28.922
			19701.76, 34.900, 29.005
			19733.73, 35.000, 29.089
			19767.23, 35.100, 29.172
			19803.44, 35.200, 29.255
			19841.49, 35.300, 29.338
			19881.90, 35.400, 29.422
			19919.14, 35.500, 29.505
			19955.35, 35.600, 29.588
			19988.49, 35.700, 29.672
			20018.72, 35.800, 29.755
			20051.71, 35.900, 29.838
			20082.71, 36.000, 29.922
			20112.47, 36.100, 30.005
			20139.63, 36.200, 30.089
			20166.18, 36.300, 30.172
			20192.47, 36.400, 30.255
			20216.51, 36.500, 30.338
			20242.29, 36.600, 30.422
			20256.76, 36.700, 30.505
			20264.94, 36.800, 30.588
			20266.58, 36.900, 30.672
			20260.95, 37.000, 30.755
			20248.12, 37.100, 30.839
			20225.36, 37.200, 30.922
			20202.49, 37.300, 31.005
			20180.24, 37.400, 31.088
			20150.37, 37.500, 31.172
			20111.04, 37.600, 31.255
			20056.21, 37.700, 31.338
			19973.05, 37.800, 31.422
			19863.54, 37.900, 31.505
			19753.11, 38.000, 31.589
			19653.78, 38.100, 31.672
			19561.21, 38.200, 31.755
			19460.75, 38.300, 31.838
			19362.45, 38.400, 31.922
			19262.51, 38.500, 32.005
			19171.98, 38.600, 32.089
			19091.32, 38.700, 32.173
			19013.98, 38.800, 32.255
			18945.55, 38.900, 32.339
			18880.03, 39.000, 32.422
			18808.68, 39.100, 32.505
			18743.36, 39.200, 32.589
			18686.43, 39.300, 32.672
			18621.58, 39.400, 32.755
			18547.88, 39.500, 32.838
			18464.86, 39.600, 32.922
			18371.57, 39.700, 33.005
			18281.09, 39.800, 33.089
			18203.09, 39.900, 33.172
			18133.53, 40.000, 33.255
			18062.33, 40.100, 33.339
			17990.83, 40.200, 33.422
			17906.95, 40.300, 33.505
			17812.27, 40.400, 33.588
			17715.76, 40.500, 33.672
			17626.81, 40.600, 33.756
			17565.08, 40.700, 33.839
			17507.28, 40.800, 33.922
			17437.21, 40.900, 34.005
			17363.30, 41.000, 34.089
			17284.43, 41.100, 34.172
			17209.25, 41.200, 34.255
			17137.95, 41.300, 34.339
			17077.18, 41.400, 34.422
			17017.14, 41.500, 34.505
			16953.82, 41.600, 34.589
			16892.03, 41.700, 34.672
			16827.74, 41.800, 34.755
			16767.69, 41.900, 34.839
			16708.77, 42.000, 34.922
			16648.82, 42.100, 35.005
			16579.11, 42.200, 35.089
			16502.19, 42.300, 35.172
			16421.32, 42.400, 35.255
			16342.91, 42.500, 35.339
			16253.61, 42.600, 35.422
			16151.72, 42.700, 35.505
			16026.31, 42.800, 35.589
			15869.59, 42.900, 35.672
			15649.51, 43.000, 35.755
			15279.35, 43.100, 35.839
			8451.74, 43.200, 35.923
			1238.07, 43.240, 35.956
		EndData
	EndSpecimen
	BeginSpecimen
		SpecimanName, "311-8",  ""
		Comment, "",  ""
		Break, 445,  ""
		Displacement_Peak_Load, 31.928,  "mm"
		Displacement_Peak_Load2, 1.257,  "in"
		LoadCellCapacity, 200000.000,  "N"
		Peak, 382,  ""
		PeakLoad, 19302,  "N"
		PeakLoad2, 4339,  "lbf"
		BeginData
			_Load, _Time, SlackExt
			"N", "s", "mm"
			25.68, 0.200, 0.100
			35.14, 0.300, 0.182
			50.02, 0.400, 0.262
			67.87, 0.500, 0.346
			87.92, 0.600, 0.429
			119.74, 0.700, 0.513
			147.25, 0.800, 0.596
			178.81, 0.900, 0.679
			215.02, 1.000, 0.762
			252.97, 1.100, 0.846
			291.08, 1.200, 0.929
			328.83, 1.300, 1.012
			369.85, 1.400, 1.096
			408.87, 1.500, 1.179
			449.28, 1.600, 1.262
			474.90, 1.700, 1.346
			498.12, 1.800, 1.429
			523.03, 1.900, 1.513
			556.38, 2.000, 1.596
			598.83, 2.100, 1.679
			640.21, 2.200, 1.762
			695.30, 2.300, 1.846
			758.36, 2.400, 1.929
			829.00, 2.500, 2.012
			901.78, 2.600, 2.096
			981.31, 2.700, 2.179
			1055.78, 2.800, 2.262
			1137.36, 2.900, 2.346
			1225.59, 3.000, 2.429
			1318.48, 3.100, 2.512
			1413.51, 3.200, 2.596
			1509.72, 3.300, 2.679
			1606.44, 3.400, 2.762
			1705.30, 3.500, 2.846
			1804.12, 3.600, 2.929
			1903.14, 3.700, 3.012
			2002.32, 3.800, 3.096
			2101.85, 3.900, 3.179
			2199.95, 4.000, 3.262
			2294.52, 4.100, 3.346
			2389.40, 4.200, 3.429
			2489.34, 4.300, 3.512
			2587.29, 4.400, 3.596
			2685.34, 4.500, 3.679
			2783.23, 4.600, 3.762
			2890.80, 4.700, 3.846
			3000.71, 4.800, 3.929
			3111.75, 4.900, 4.012
			3220.80, 5.000, 4.096
			3323.20, 5.100, 4.179
			3434.14, 5.200, 4.262
			3549.68, 5.300, 4.346
			3660.92, 5.400, 4.429
			3771.50, 5.500, 4.512
			3881.78, 5.600, 4.596
			3989.80, 5.700, 4.679
			4095.47, 5.800, 4.762
			4201.65, 5.900, 4.846
			4309.37, 6.000, 4.929
			4415.14, 6.100, 5.012
			4519.02, 6.200, 5.096
			4621.27, 6.300, 5.179
			4722.54, 6.400, 5.262
			4822.17, 6.500, 5.345
			4923.09, 6.600, 5.429
			5020.78, 6.700, 5.512
			5117.60, 6.800, 5.596
			5215.60, 6.900, 5.679
			5311.04, 7.000, 5.762
			5405.66, 7.100, 5.846
			5497.93, 7.200, 5.929
			5588.87, 7.300, 6.012
			5678.23, 7.400, 6.095
			5766.10, 7.500, 6.179
			5848.65, 7.600, 6.262
			5929.26, 7.700, 6.345
			6012.22, 7.800, 6.429
			6093.75, 7.900, 6.512
			6175.23, 8.000, 6.596
			6255.89, 8.100, 6.679
			6334.75, 8.200, 6.762
			6413.32, 8.300, 6.845
			6489.42, 8.400, 6.929
			6564.35, 8.500, 7.012
			6637.80, 8.600, 7.096
			6710.59, 8.700, 7.179
			6781.99, 8.800, 7.262
			6856.56, 8.900, 7.346
			6922.13, 9.000, 7.429
			6986.63, 9.100, 7.512
			7048.98, 9.200, 7.595
			7110.86, 9.300, 7.679
			7168.46, 9.400, 7.762
			7223.13, 9.500, 7.845
			7275.97, 9.600, 7.929
			7330.03, 9.700, 8.012
			7380.16, 9.800, 8.096
			7428.59, 9.900, 8.179
			7475.75, 10.000, 8.262
			7517.59, 10.100, 8.345
			7556.92, 10.200, 8.429
			7592.77, 10.300, 8.512
			7627.35, 10.400, 8.595
			7658.35, 10.500, 8.679
			7685.66, 10.600, 8.762
			7710.87, 10.700, 8.845
			7731.74, 10.800, 8.929
			7763.81, 10.900, 9.012
			7838.64, 11.000, 9.095
			7909.53, 11.100, 9.179
			7973.62, 11.200, 9.262
			8033.97, 11.300, 9.345
			8089.72, 11.400, 9.429
			8143.43, 11.500, 9.512
			8193.60, 11.600, 9.595
			8242.30, 11.700, 9.679
			8287.61, 11.800, 9.762
			8328.27, 11.900, 9.845
			8366.43, 12.000, 9.929
			8398.76, 12.100, 10.012
			8449.44, 12.200, 10.095
			8514.35, 12.300, 10.179
			8579.05, 12.400, 10.262
			8643.19, 12.500, 10.346
			8707.12, 12.600, 10.429
			8769.37, 12.700, 10.512
			8831.82, 12.800, 10.595
			8893.09, 12.900, 10.679
			8956.16, 13.000, 10.762
			9020.25, 13.100, 10.845
			9084.59, 13.200, 10.929
			9149.91, 13.300, 11.012
			9212.05, 13.400, 11.095
			9274.14, 13.500, 11.179
			9337.16, 13.600, 11.262
			9397.71, 13.700, 11.345
			9459.55, 13.800, 11.429
			9519.24, 13.900, 11.512
			9579.80, 14.000, 11.595
			9641.64, 14.100, 11.679
			9700.10, 14.200, 11.762
			9763.16, 14.300, 11.845
			9828.12, 14.400, 11.929
			9888.58, 14.500, 12.012
			9950.92, 14.600, 12.095
			10012.25, 14.700, 12.179
			10074.09, 14.800, 12.262
			10135.72, 14.900, 12.345
			10199.65, 15.000, 12.429
			10260.37, 15.100, 12.512
			10319.80, 15.200, 12.595
			10380.36, 15.300, 12.679
			10437.95, 15.400, 12.762
			10495.80, 15.500, 12.845
			10553.85, 15.600, 12.929
			10610.67, 15.700, 13.012
			10666.17, 15.800, 13.095
			10723.20, 15.900, 13.179
			10777.36, 16.000, 13.262
			10832.65, 16.100, 13.345
			10887.84, 16.200, 13.429
			10942.42, 16.300, 13.512
			10994.94, 16.400, 13.595
			11048.65, 16.500, 13.679
			11101.43, 16.600, 13.762
			11154.11, 16.700, 13.845
			11206.13, 16.800, 13.928
			11258.92, 16.900, 14.012
			11309.96, 17.000, 14.095
			11360.34, 17.100, 14.179
			11412.26, 17.200, 14.262
			11462.28, 17.300, 14.345
			11513.37, 17.400, 14.429
			11564.16, 17.500, 14.512
			11612.14, 17.600, 14.595
			11662.42, 17.700, 14.679
			11709.52, 17.800, 14.762
			11758.17, 17.900, 14.845
			11804.81, 18.000, 14.929
			11851.20, 18.100, 15.012
			11899.74, 18.200, 15.095
			11946.13, 18.300, 15.179
			11992.98, 18.400, 15.262
			12037.94, 18.500, 15.345
			12082.64, 18.600, 15.429
			12128.93, 18.700, 15.512
			12177.62, 18.800, 15.595
			12228.41, 18.900, 15.678
			12278.79, 19.000, 15.762
			12329.43, 19.100, 15.845
			12380.99, 19.200, 15.929
			12430.24, 19.300, 16.012
			12479.50, 19.400, 16.095
			12526.76, 19.500, 16.179
			12573.76, 19.600, 16.262
			12620.05, 19.700, 16.345
			12663.63, 19.800, 16.429
			12707.10, 19.900, 16.512
			12749.45, 20.000, 16.595
			12789.86, 20.100, 16.679
			12829.29, 20.200, 16.762
			12869.39, 20.300, 16.845
			12908.88, 20.400, 16.929
			12946.98, 20.500, 17.012
			12981.15, 20.600, 17.095
			13016.54, 20.700, 17.178
			13049.38, 20.800, 17.262
			13079.86, 20.900, 17.345
			13109.48, 21.000, 17.429
			13134.85, 21.100, 17.512
			13156.38, 21.200, 17.595
			13176.17, 21.300, 17.679
			13189.22, 21.400, 17.762
			13203.18, 21.500, 17.845
			13232.95, 21.600, 17.929
			13280.57, 21.700, 18.012
			13333.66, 21.800, 18.095
			13382.81, 21.900, 18.179
			13430.84, 22.000, 18.262
			13479.73, 22.100, 18.345
			13528.12, 22.200, 18.429
			13576.20, 22.300, 18.512
			13622.28, 22.400, 18.595
			13666.88, 22.500, 18.678
			13713.12, 22.600, 18.763
			13756.49, 22.700, 18.845
			13801.71, 22.800, 18.929
			13847.89, 22.900, 19.012
			13893.93, 23.000, 19.095
			13940.47, 23.100, 19.179
			13987.17, 23.200, 19.262
			14035.55, 23.300, 19.345
			14082.45, 23.400, 19.429
			14129.15, 23.500, 19.512
			14175.49, 23.600, 19.596
			14221.83, 23.700, 19.678
			14268.02, 23.800, 19.762
			14315.12, 23.900, 19.845
			14362.28, 24.000, 19.929
			14408.83, 24.100, 20.012
			14455.93, 24.200, 20.095
			14503.76, 24.300, 20.178
			14549.33, 24.400, 20.262
			14596.38, 24.500, 20.345
			14642.62, 24.600, 20.428
			14688.70, 24.700, 20.512
			14735.71, 24.800, 20.595
			14782.66, 24.900, 20.679
			14829.97, 25.000, 20.762
			14877.03, 25.100, 20.845
			14925.26, 25.200, 20.928
			14969.40, 25.300, 21.012
			15015.28, 25.400, 21.095
			15060.29, 25.500, 21.178
			15104.99, 25.600, 21.262
			15150.87, 25.700, 21.345
			15194.14, 25.800, 21.429
			15239.92, 25.900, 21.512
			15285.18, 26.000, 21.595
			15328.35, 26.100, 21.678
			15372.49, 26.200, 21.762
			15414.69, 26.300, 21.845
			15456.38, 26.400, 21.928
			15497.40, 26.500, 22.012
			15538.72, 26.600, 22.095
			15581.07, 26.700, 22.178
			15621.58, 26.800, 22.262
			15664.65, 26.900, 22.345
			15706.54, 27.000, 22.428
			15748.84, 27.100, 22.512
			15792.57, 27.200, 22.595
			15834.71, 27.300, 22.678
			15876.76, 27.400, 22.762
			15918.70, 27.500, 22.845
			15960.38, 27.600, 22.928
			16000.74, 27.700, 23.012
			16040.38, 27.800, 23.095
			16078.33, 27.900, 23.178
			16118.32, 28.000, 23.262
			16156.58, 28.100, 23.345
			16198.47, 28.200, 23.428
			16238.42, 28.300, 23.512
			16276.37, 28.400, 23.595
			16317.13, 28.500, 23.678
			16356.42, 28.600, 23.762
			16394.67, 28.700, 23.845
			16432.88, 28.800, 23.928
			16469.71, 28.900, 24.012
			16508.78, 29.000, 24.095
			16548.37, 29.100, 24.178
			16586.63, 29.200, 24.262
			16624.99, 29.300, 24.345
			16663.61, 29.400, 24.428
			16703.04, 29.500, 24.512
			16740.69, 29.600, 24.595
			16777.82, 29.700, 24.678
			16814.24, 29.800, 24.762
			16849.68, 29.900, 24.845
			16890.85, 30.000, 24.928
			16926.50, 30.100, 25.012
			16959.39, 30.200, 25.095
			16992.43, 30.300, 25.178
			17025.17, 30.400, 25.262
			17056.01, 30.500, 25.345
			17085.93, 30.600, 25.428
			17115.14, 30.700, 25.512
			17142.70, 30.800, 25.595
			17167.00, 30.900, 25.678
			17190.73, 31.000, 25.762
			17214.41, 31.100, 25.845
			17235.79, 31.200, 25.928
			17252.72, 31.300, 26.012
			17264.18, 31.400, 26.095
			17275.79, 31.500, 26.178
			17293.33, 31.600, 26.262
			17314.10, 31.700, 26.345
			17338.75, 31.800, 26.428
			17363.56, 31.900, 26.512
			17387.70, 32.000, 26.595
			17411.94, 32.100, 26.678
			17435.83, 32.200, 26.762
			17460.69, 32.300, 26.845
			17487.33, 32.400, 26.928
			17513.98, 32.500, 27.012
			17541.30, 32.600, 27.095
			17568.25, 32.700, 27.178
			17592.95, 32.800, 27.262
			17617.20, 32.900, 27.345
			17645.43, 33.000, 27.428
			17675.51, 33.100, 27.512
			17705.84, 33.200, 27.595
			17737.80, 33.300, 27.678
			17772.00, 33.400, 27.762
			17805.93, 33.500, 27.845
			17837.54, 33.600, 27.929
			17870.17, 33.700, 28.012
			17901.63, 33.800, 28.095
			17930.22, 33.900, 28.178
			17956.46, 34.000, 28.262
			17979.88, 34.100, 28.345
			18001.83, 34.200, 28.428
			18024.59, 34.300, 28.512
			18044.53, 34.400, 28.595
			18062.08, 34.500, 28.678
			18079.01, 34.600, 28.762
			18098.80, 34.700, 28.845
			18119.16, 34.800, 28.928
			18133.99, 34.900, 29.012
			18144.58, 35.000, 29.095
			18160.43, 35.100, 29.178
			18189.84, 35.200, 29.262
			18228.26, 35.300, 29.345
			18265.34, 35.400, 29.428
			18301.65, 35.500, 29.512
			18335.36, 35.600, 29.595
			18371.06, 35.700, 29.678
			18407.58, 35.800, 29.761
			18445.32, 35.900, 29.845
			18483.63, 36.000, 29.928
			18521.48, 36.100, 30.012
			18560.05, 36.200, 30.095
			18597.59, 36.300, 30.178
			18633.60, 36.400, 30.262
			18672.73, 36.500, 30.345
			18710.93, 36.600, 30.428
			18750.52, 36.700, 30.512
			18788.88, 36.800, 30.595
			18826.78, 36.900, 30.678
			18865.14, 37.000, 30.762
			18903.50, 37.100, 30.845
			18940.28, 37.200, 30.928
			18979.41, 37.300, 31.012
			19018.89, 37.400, 31.095
			19057.15, 37.500, 31.178
			19094.23, 37.600, 31.262
			19129.78, 37.700, 31.345
			19164.81, 37.800, 31.428
			19197.75, 37.900, 31.512
			19226.96, 38.000, 31.595
			19252.69, 38.100, 31.678
			19274.01, 38.200, 31.762
			19290.33, 38.300, 31.845
			19301.63, 38.400, 31.928
			19300.25, 38.500, 32.012
			19288.54, 38.600, 32.095
			19264.09, 38.700, 32.178
			19234.89, 38.800, 32.262
			19195.04, 38.900, 32.345
			19157.45, 39.000, 32.428
			19134.64, 39.100, 32.512
			19119.65, 39.200, 32.595
			19086.51, 39.300, 32.678
			19029.07, 39.400, 32.762
			18940.99, 39.500, 32.845
			18826.12, 39.600, 32.928
			18711.34, 39.700, 33.012
			18619.12, 39.800, 33.095
			18536.67, 39.900, 33.178
			18463.18, 40.000, 33.262
			18407.99, 40.100, 33.345
			18355.20, 40.200, 33.428
			18291.88, 40.300, 33.512
			18226.62, 40.400, 33.595
			18175.37, 40.500, 33.678
			18131.64, 40.600, 33.762
			18093.43, 40.700, 33.845
			18062.49, 40.800, 33.928
			18030.47, 40.900, 34.012
			17996.97, 41.000, 34.095
			17984.85, 41.100, 34.178
			17974.56, 41.200, 34.262
			17959.53, 41.300, 34.345
			17936.92, 41.400, 34.428
			17899.12, 41.500, 34.512
			17839.59, 41.600, 34.595
			17770.38, 41.700, 34.678
			17706.50, 41.800, 34.762
			17654.33, 41.900, 34.845
			17603.69, 42.000, 34.928
			17558.69, 42.100, 35.012
			17514.55, 42.200, 35.095
			17472.14, 42.300, 35.178
			17425.09, 42.400, 35.262
			17371.54, 42.500, 35.345
			17308.01, 42.600, 35.428
			17222.08, 42.700, 35.512
			17124.50, 42.800, 35.595
			17040.10, 42.900, 35.678
			16954.74, 43.000, 35.762
			16865.79, 43.100, 35.845
			16788.41, 43.200, 35.928
			16722.83, 43.300, 36.012
			16663.76, 43.400, 36.095
			16608.93, 43.500, 36.178
			16544.84, 43.600, 36.262
			16475.74, 43.700, 36.345
			16412.17, 43.800, 36.428
			16348.13, 43.900, 36.512
			16292.74, 44.000, 36.595
			16235.91, 44.100, 36.678
			16172.90, 44.200, 36.762
			16102.06, 44.300, 36.845
			16026.31, 44.400, 36.928
			15948.00, 44.500, 37.012
			15866.88, 44.600, 37.095
			15773.90, 44.700, 37.178
			15666.13, 44.800, 37.262
			15554.42, 44.900, 37.345
			15420.73, 45.000, 37.428
			15272.19, 45.100, 37.512
			15037.63, 45.200, 37.595
			5262.60, 45.300, 37.679
			1808.52, 45.320, 37.696
		EndData
	EndSpecimen
	BeginSpecimen
		SpecimanName, "311-5",  ""
		Comment, "",  ""
		Break, 494,  ""
		Displacement_Peak_Load, 36.339,  "mm"
		Displacement_Peak_Load2, 1.431,  "in"
		LoadCellCapacity, 200000.000,  "N"
		Peak, 435,  ""
		PeakLoad, 20238,  "N"
		PeakLoad2, 4550,  "lbf"
		BeginData
			_Load, _Time, SlackExt
			"N", "s", "mm"
			28.18, 0.200, 0.096
			43.53, 0.300, 0.176
			59.51, 0.400, 0.256
			73.29, 0.500, 0.339
			87.10, 0.600, 0.423
			101.53, 0.700, 0.506
			117.08, 0.800, 0.590
			126.79, 0.900, 0.673
			131.35, 1.000, 0.756
			134.42, 1.100, 0.840
			135.95, 1.200, 0.923
			149.61, 1.300, 1.006
			163.98, 1.400, 1.090
			180.45, 1.500, 1.173
			194.10, 1.600, 1.256
			206.99, 1.700, 1.340
			218.50, 1.800, 1.423
			223.26, 1.900, 1.506
			237.68, 2.000, 1.590
			259.06, 2.100, 1.673
			282.33, 2.200, 1.756
			307.91, 2.300, 1.840
			335.48, 2.400, 1.923
			360.33, 2.500, 2.006
			384.88, 2.600, 2.090
			409.59, 2.700, 2.173
			449.74, 2.800, 2.256
			474.24, 2.900, 2.340
			508.81, 3.000, 2.423
			536.08, 3.100, 2.506
			559.04, 3.200, 2.590
			577.30, 3.300, 2.673
			578.78, 3.400, 2.756
			591.67, 3.500, 2.840
			557.15, 3.600, 2.923
			451.63, 3.700, 3.006
			509.33, 3.800, 3.090
			558.12, 3.900, 3.173
			602.98, 4.000, 3.256
			645.28, 4.100, 3.340
			691.31, 4.200, 3.423
			744.65, 4.300, 3.506
			803.27, 4.400, 3.590
			867.10, 4.500, 3.673
			933.13, 4.600, 3.756
			1008.93, 4.700, 3.840
			1088.67, 4.800, 3.923
			1168.56, 4.900, 4.006
			1250.76, 5.000, 4.090
			1334.13, 5.100, 4.173
			1419.85, 5.200, 4.256
			1495.70, 5.300, 4.340
			1576.26, 5.400, 4.423
			1657.48, 5.500, 4.506
			1741.72, 5.600, 4.590
			1824.32, 5.700, 4.673
			1909.43, 5.800, 4.756
			1988.76, 5.900, 4.840
			2063.23, 6.000, 4.923
			2132.18, 6.100, 5.006
			2200.36, 6.200, 5.090
			2277.90, 6.300, 5.173
			2354.52, 6.400, 5.256
			2390.93, 6.500, 5.340
			1930.15, 6.600, 5.423
			2074.84, 6.700, 5.506
			2215.65, 6.800, 5.590
			2350.53, 6.900, 5.673
			2482.03, 7.000, 5.756
			2606.93, 7.100, 5.840
			2730.66, 7.200, 5.923
			2848.40, 7.300, 6.006
			2956.22, 7.400, 6.089
			3070.38, 7.500, 6.173
			3183.77, 7.600, 6.256
			3296.60, 7.700, 6.340
			3405.70, 7.800, 6.423
			3515.97, 7.900, 6.506
			3623.94, 8.000, 6.590
			3731.30, 8.100, 6.673
			3837.69, 8.200, 6.756
			3943.67, 8.300, 6.840
			4046.06, 8.400, 6.923
			4145.95, 8.500, 7.006
			4245.59, 8.600, 7.089
			4343.38, 8.700, 7.173
			4438.11, 8.800, 7.256
			4532.88, 8.900, 7.339
			4629.65, 9.000, 7.423
			4730.98, 9.100, 7.506
			4828.21, 9.200, 7.589
			4925.08, 9.300, 7.673
			5020.57, 9.400, 7.756
			5115.15, 9.500, 7.839
			5208.64, 9.600, 7.923
			5300.30, 9.700, 8.006
			5390.06, 9.800, 8.090
			5477.63, 9.900, 8.173
			5564.68, 10.000, 8.256
			5649.48, 10.100, 8.339
			5730.60, 10.200, 8.423
			5811.41, 10.300, 8.506
			5889.72, 10.400, 8.589
			5967.77, 10.500, 8.673
			6043.47, 10.600, 8.756
			6117.48, 10.700, 8.840
			6189.70, 10.800, 8.923
			6259.72, 10.900, 9.006
			6327.24, 11.000, 9.089
			6395.01, 11.100, 9.173
			6459.96, 11.200, 9.256
			6522.72, 11.300, 9.339
			6586.55, 11.400, 9.423
			6647.37, 11.500, 9.506
			6707.67, 11.600, 9.590
			6763.78, 11.700, 9.673
			6822.24, 11.800, 9.756
			6873.23, 11.900, 9.839
			6919.62, 12.000, 9.923
			6966.58, 12.100, 10.006
			7013.43, 12.200, 10.089
			7055.22, 12.300, 10.173
			7097.05, 12.400, 10.256
			7136.49, 12.500, 10.339
			7175.62, 12.600, 10.423
			7212.44, 12.700, 10.506
			7270.70, 12.800, 10.589
			7343.99, 12.900, 10.673
			7413.71, 13.000, 10.756
			7481.89, 13.100, 10.839
			7548.17, 13.200, 10.923
			7610.42, 13.300, 11.006
			7669.24, 13.400, 11.089
			7727.34, 13.500, 11.173
			7780.43, 13.600, 11.256
			7830.25, 13.700, 11.339
			7875.98, 13.800, 11.423
			7918.84, 13.900, 11.506
			7958.07, 14.000, 11.589
			7993.87, 14.100, 11.673
			8026.20, 14.200, 11.756
			8049.37, 14.300, 11.839
			8076.17, 14.400, 11.923
			8101.03, 14.500, 12.006
			8153.91, 14.600, 12.089
			8226.85, 14.700, 12.173
			8290.12, 14.800, 12.256
			8347.56, 14.900, 12.339
			8403.00, 15.000, 12.423
			8454.71, 15.100, 12.506
			8506.68, 15.200, 12.589
			8556.29, 15.300, 12.673
			8602.37, 15.400, 12.756
			8648.51, 15.500, 12.839
			8692.95, 15.600, 12.923
			8737.45, 15.700, 13.006
			8783.18, 15.800, 13.089
			8853.97, 15.900, 13.173
			8933.91, 16.000, 13.256
			9010.78, 16.100, 13.339
			9085.92, 16.200, 13.423
			9161.31, 16.300, 13.506
			9233.63, 16.400, 13.589
			9306.47, 16.500, 13.673
			9379.30, 16.600, 13.756
			9450.29, 16.700, 13.839
			9520.98, 16.800, 13.923
			9588.65, 16.900, 14.006
			9653.86, 17.000, 14.089
			9711.09, 17.100, 14.173
			9761.32, 17.200, 14.256
			9823.16, 17.300, 14.339
			9890.16, 17.400, 14.423
			9955.83, 17.500, 14.506
			10020.02, 17.600, 14.589
			10085.03, 17.700, 14.673
			10148.46, 17.800, 14.756
			10216.38, 17.900, 14.839
			10276.48, 18.000, 14.923
			10339.59, 18.100, 15.006
			10399.90, 18.200, 15.089
			10460.91, 18.300, 15.173
			10519.94, 18.400, 15.256
			10577.58, 18.500, 15.339
			10635.17, 18.600, 15.423
			10691.84, 18.700, 15.506
			10751.28, 18.800, 15.589
			10810.40, 18.900, 15.673
			10867.43, 19.000, 15.756
			10927.43, 19.100, 15.839
			10987.53, 19.200, 15.923
			11047.88, 19.300, 16.006
			11107.83, 19.400, 16.089
			11165.98, 19.500, 16.173
			11226.69, 19.600, 16.256
			11286.43, 19.700, 16.339
			11346.02, 19.800, 16.422
			11405.76, 19.900, 16.506
			11463.76, 20.000, 16.589
			11524.27, 20.100, 16.672
			11582.37, 20.200, 16.756
			11641.60, 20.300, 16.839
			11698.94, 20.400, 16.923
			11756.32, 20.500, 17.006
			11812.94, 20.600, 17.089
			11869.51, 20.700, 17.172
			11926.80, 20.800, 17.256
			11982.34, 20.900, 17.339
			12039.22, 21.000, 17.422
			12095.99, 21.100, 17.506
			12151.90, 21.200, 17.589
			12206.37, 21.300, 17.672
			12261.51, 21.400, 17.756
			12315.98, 21.500, 17.839
			12369.48, 21.600, 17.922
			12423.49, 21.700, 18.006
			12477.60, 21.800, 18.089
			12529.83, 21.900, 18.172
			12583.12, 22.000, 18.256
			12634.01, 22.100, 18.339
			12684.75, 22.200, 18.423
			12734.62, 22.300, 18.506
			12785.05, 22.400, 18.589
			12833.79, 22.500, 18.672
			12879.78, 22.600, 18.756
			12927.34, 22.700, 18.839
			12974.71, 22.800, 18.922
			13020.48, 22.900, 19.006
			13066.46, 23.000, 19.089
			13111.01, 23.100, 19.172
			13156.38, 23.200, 19.256
			13200.88, 23.300, 19.339
			13244.15, 23.400, 19.423
			13288.03, 23.500, 19.506
			13331.56, 23.600, 19.589
			13377.29, 23.700, 19.672
			13422.91, 23.800, 19.756
			13468.17, 23.900, 19.839
			13517.58, 24.000, 19.922
			13567.14, 24.100, 20.006
			13613.89, 24.200, 20.089
			13657.42, 24.300, 20.172
			13702.89, 24.400, 20.256
			13749.38, 24.500, 20.339
			13798.48, 24.600, 20.422
			13849.68, 24.700, 20.506
			13901.60, 24.800, 20.589
			13954.48, 24.900, 20.672
			14006.04, 25.000, 20.756
			14058.52, 25.100, 20.839
			14109.67, 25.200, 20.923
			14161.12, 25.300, 21.006
			14213.75, 25.400, 21.089
			14265.72, 25.500, 21.172
			14315.99, 25.600, 21.256
			14364.99, 25.700, 21.339
			14416.19, 25.800, 21.422
			14465.55, 25.900, 21.506
			14515.52, 26.000, 21.589
			14563.60, 26.100, 21.672
			14612.65, 26.200, 21.756
			14661.24, 26.300, 21.839
			14709.73, 26.400, 21.922
			14756.58, 26.500, 22.006
			14803.73, 26.600, 22.089
			14850.18, 26.700, 22.172
			14897.64, 26.800, 22.256
			14945.46, 26.900, 22.339
			14991.39, 27.000, 22.422
			15037.48, 27.100, 22.506
			15081.87, 27.200, 22.589
			15127.86, 27.300, 22.672
			15172.46, 27.400, 22.756
			15217.41, 27.500, 22.839
			15261.15, 27.600, 22.922
			15304.57, 27.700, 23.006
			15347.33, 27.800, 23.089
			15389.99, 27.900, 23.172
			15432.28, 28.000, 23.256
			15475.30, 28.100, 23.339
			15518.62, 28.200, 23.422
			15559.59, 28.300, 23.506
			15601.79, 28.400, 23.589
			15642.09, 28.500, 23.672
			15682.29, 28.600, 23.756
			15722.24, 28.700, 23.839
			15760.29, 28.800, 23.922
			15799.57, 28.900, 24.006
			15839.52, 29.000, 24.089
			15878.55, 29.100, 24.172
			15917.72, 29.200, 24.256
			15955.68, 29.300, 24.339
			15993.58, 29.400, 24.422
			16031.42, 29.500, 24.506
			16068.76, 29.600, 24.589
			16105.84, 29.700, 24.672
			16141.34, 29.800, 24.756
			16178.06, 29.900, 24.839
			16214.07, 30.000, 24.922
			16249.98, 30.100, 25.006
			16282.87, 30.200, 25.089
			16318.41, 30.300, 25.172
			16353.24, 30.400, 25.256
			16389.20, 30.500, 25.339
			16423.83, 30.600, 25.422
			16457.58, 30.700, 25.506
			16492.47, 30.800, 25.589
			16526.94, 30.900, 25.672
			16560.29, 31.000, 25.756
			16594.46, 31.100, 25.839
			16627.50, 31.200, 25.922
			16661.00, 31.300, 26.006
			16692.10, 31.400, 26.089
			16722.22, 31.500, 26.172
			16753.17, 31.600, 26.256
			16783.60, 31.700, 26.339
			16814.59, 31.800, 26.422
			16846.41, 31.900, 26.506
			16881.55, 32.000, 26.589
			16912.75, 32.100, 26.672
			16943.95, 32.200, 26.756
			16973.92, 32.300, 26.839
			17003.17, 32.400, 26.922
			17033.66, 32.500, 27.006
			17063.94, 32.600, 27.089
			17093.70, 32.700, 27.172
			17122.86, 32.800, 27.256
			17151.96, 32.900, 27.339
			17182.09, 33.000, 27.422
			17211.24, 33.100, 27.505
			17240.86, 33.200, 27.589
			17270.42, 33.300, 27.672
			17300.08, 33.400, 27.756
			17329.55, 33.500, 27.839
			17359.57, 33.600, 27.922
			17388.26, 33.700, 28.006
			17418.64, 33.800, 28.089
			17448.77, 33.900, 28.172
			17480.99, 34.000, 28.256
			17513.68, 34.100, 28.339
			17545.59, 34.200, 28.422
			17577.05, 34.300, 28.506
			17608.81, 34.400, 28.589
			17640.16, 34.500, 28.672
			17672.13, 34.600, 28.756
			17704.97, 34.700, 28.839
			17738.52, 34.800, 28.922
			17773.30, 34.900, 29.006
			17806.90, 35.000, 29.089
			17841.68, 35.100, 29.172
			17878.05, 35.200, 29.256
			17912.22, 35.300, 29.339
			17947.56, 35.400, 29.422
			17982.39, 35.500, 29.506
			18018.24, 35.600, 29.589
			18054.00, 35.700, 29.672
			18088.01, 35.800, 29.756
			18122.84, 35.900, 29.839
			18158.03, 36.000, 29.922
			18193.42, 36.100, 30.005
			18230.61, 36.200, 30.089
			18264.47, 36.300, 30.172
			18300.37, 36.400, 30.256
			18335.82, 36.500, 30.339
			18370.09, 36.600, 30.422
			18405.63, 36.700, 30.505
			18438.42, 36.800, 30.589
			18472.23, 36.900, 30.672
			18507.11, 37.000, 30.755
			18539.90, 37.100, 30.839
			18575.14, 37.200, 30.922
			18608.59, 37.300, 31.006
			18643.06, 37.400, 31.089
			18677.43, 37.500, 31.172
			18709.91, 37.600, 31.256
			18743.67, 37.700, 31.339
			18775.63, 37.800, 31.422
			18807.04, 37.900, 31.505
			18839.52, 38.000, 31.589
			18870.92, 38.100, 31.672
			18904.73, 38.200, 31.755
			18937.98, 38.300, 31.839
			18969.33, 38.400, 31.922
			19002.78, 38.500, 32.005
			19034.24, 38.600, 32.089
			19067.99, 38.700, 32.172
			19100.98, 38.800, 32.255
			19132.49, 38.900, 32.339
			19164.61, 39.000, 32.422
			19196.78, 39.100, 32.505
			19229.41, 39.200, 32.589
			19261.94, 39.300, 32.672
			19292.58, 39.400, 32.755
			19322.55, 39.500, 32.839
			19353.91, 39.600, 32.922
			19383.42, 39.700, 33.005
			19412.47, 39.800, 33.089
			19439.68, 39.900, 33.172
			19465.56, 40.000, 33.256
			19490.32, 40.100, 33.339
			19512.36, 40.200, 33.422
			19533.08, 40.300, 33.505
			19550.57, 40.400, 33.589
			19567.91, 40.500, 33.672
			19581.26, 40.600, 33.755
			19590.11, 40.700, 33.839
			19599.00, 40.800, 33.922
			19608.21, 40.900, 34.005
			19622.53, 41.000, 34.089
			19640.33, 41.100, 34.172
			19655.62, 41.200, 34.256
			19667.24, 41.300, 34.339
			19678.23, 41.400, 34.422
			19695.42, 41.500, 34.505
			19719.20, 41.600, 34.589
			19745.44, 41.700, 34.672
			19777.66, 41.800, 34.755
			19808.91, 41.900, 34.839
			19839.55, 42.000, 34.922
			19865.74, 42.100, 35.005
			19888.50, 42.200, 35.089
			19915.25, 42.300, 35.172
			19943.12, 42.400, 35.255
			19969.82, 42.500, 35.339
			19997.39, 42.600, 35.422
			20026.34, 42.700, 35.505
			20052.73, 42.800, 35.589
			20078.41, 42.900, 35.672
			20103.11, 43.000, 35.755
			20128.89, 43.100, 35.839
			20153.80, 43.200, 35.922
			20178.20, 43.300, 36.005
			20199.07, 43.400, 36.089
			20216.97, 43.500, 36.172
			20232.62, 43.600, 36.255
			20237.58, 43.700, 36.339
			20232.67, 43.800, 36.422
			20225.61, 43.900, 36.506
			20227.50, 44.000, 36.589
			20230.98, 44.100, 36.672
			20229.04, 44.200, 36.756
			20209.55, 44.300, 36.839
			20183.72, 44.400, 36.922
			20152.52, 44.500, 37.005
			20109.00, 44.600, 37.089
			20039.49, 44.700, 37.172
			19954.17, 44.800, 37.255
			19854.95, 44.900, 37.339
			19719.05, 45.000, 37.422
			19570.52, 45.100, 37.505
			19433.13, 45.200, 37.589
			19325.37, 45.300, 37.672
			19246.70, 45.400, 37.755
			19194.58, 45.500, 37.839
			19158.42, 45.600, 37.922
			19126.97, 45.700, 38.006
			19082.83, 45.800, 38.089
			19027.94, 45.900, 38.172
			18948.46, 46.000, 38.255
			18840.72, 46.100, 38.339
			18722.80, 46.200, 38.422
			18592.53, 46.300, 38.505
			18484.45, 46.400, 38.589
			18394.18, 46.500, 38.672
			18318.27, 46.600, 38.756
			18240.58, 46.700, 38.839
			18151.69, 46.800, 38.922
			18041.82, 46.900, 39.005
			17923.47, 47.000, 39.089
			17811.35, 47.100, 39.172
			17704.30, 47.200, 39.255
			17606.71, 47.300, 39.339
			17522.63, 47.400, 39.422
			17451.74, 47.500, 39.506
			17381.72, 47.600, 39.589
			17312.77, 47.700, 39.672
			17247.20, 47.800, 39.756
			17184.03, 47.900, 39.839
			17122.50, 48.000, 39.922
			17054.17, 48.100, 40.006
			16986.81, 48.200, 40.089
			16932.59, 48.300, 40.172
			16876.89, 48.400, 40.256
			16819.55, 48.500, 40.339
			16761.60, 48.600, 40.422
			16700.79, 48.700, 40.506
			16638.19, 48.800, 40.589
			16578.34, 48.900, 40.672
			16517.07, 49.000, 40.756
			16449.45, 49.100, 40.839
			16371.71, 49.200, 40.922
			16289.87, 49.300, 41.006
			16210.13, 49.400, 41.089
			16124.67, 49.500, 41.172
			16026.31, 49.600, 41.256
			15910.97, 49.700, 41.339
			15780.60, 49.800, 41.422
			15604.80, 49.900, 41.506
			15352.70, 50.000, 41.589
			12433.11, 50.100, 41.673
			1197.56, 50.160, 41.723
		EndData
	EndSpecimen
	BeginSpecimen
		SpecimanName, "311-3",  ""
		Comment, "",  ""
		Break, 446,  ""
		Displacement_Peak_Load, 32.679,  "mm"
		Displacement_Peak_Load2, 1.287,  "in"
		LoadCellCapacity, 200000.000,  "N"
		Peak, 391,  ""
		PeakLoad, 20277,  "N"
		PeakLoad2, 4559,  "lbf"
		BeginData
			_Load, _Time, SlackExt
			"N", "s", "mm"
			27.47, 0.200, 0.099
			41.07, 0.300, 0.182
			55.65, 0.400, 0.262
			65.93, 0.500, 0.345
			77.18, 0.600, 0.429
			85.26, 0.700, 0.512
			94.57, 0.800, 0.596
			109.81, 0.900, 0.679
			126.23, 1.000, 0.762
			139.12, 1.100, 0.846
			153.14, 1.200, 0.929
			166.94, 1.300, 1.012
			177.53, 1.400, 1.095
			191.65, 1.500, 1.179
			205.51, 1.600, 1.262
			220.65, 1.700, 1.345
			235.89, 1.800, 1.429
			252.00, 1.900, 1.512
			268.47, 2.000, 1.596
			283.46, 2.100, 1.679
			292.56, 2.200, 1.762
			303.76, 2.300, 1.846
			314.40, 2.400, 1.929
			329.70, 2.500, 2.012
			344.48, 2.600, 2.095
			357.01, 2.700, 2.179
			365.09, 2.800, 2.262
			364.94, 2.900, 2.346
			393.89, 3.000, 2.429
			434.80, 3.100, 2.512
			478.43, 3.200, 2.596
			519.91, 3.300, 2.679
			559.40, 3.400, 2.762
			595.71, 3.500, 2.846
			623.74, 3.600, 2.929
			633.26, 3.700, 3.012
			655.25, 3.800, 3.096
			680.98, 3.900, 3.179
			710.18, 4.000, 3.262
			753.76, 4.100, 3.346
			802.45, 4.200, 3.429
			851.71, 4.300, 3.512
			902.70, 4.400, 3.595
			958.71, 4.500, 3.679
			1018.60, 4.600, 3.762
			1078.19, 4.700, 3.846
			1141.51, 4.800, 3.929
			1209.48, 4.900, 4.012
			1282.11, 5.000, 4.096
			1352.29, 5.100, 4.179
			1429.21, 5.200, 4.262
			1511.81, 5.300, 4.345
			1595.34, 5.400, 4.429
			1682.75, 5.500, 4.512
			1772.67, 5.600, 4.595
			1862.63, 5.700, 4.679
			1953.22, 5.800, 4.762
			2043.70, 5.900, 4.845
			2134.89, 6.000, 4.929
			2227.47, 6.100, 5.012
			2319.58, 6.200, 5.095
			2419.12, 6.300, 5.179
			2524.33, 6.400, 5.262
			2631.84, 6.500, 5.345
			2737.87, 6.600, 5.429
			2835.61, 6.700, 5.512
			2945.47, 6.800, 5.595
			3056.31, 6.900, 5.679
			3169.24, 7.000, 5.762
			3282.33, 7.100, 5.845
			3395.11, 7.200, 5.929
			3514.08, 7.300, 6.012
			3630.70, 7.400, 6.095
			3744.65, 7.500, 6.180
			3856.05, 7.600, 6.262
			3969.70, 7.700, 6.345
			4082.28, 7.800, 6.429
			4191.48, 7.900, 6.512
			4305.53, 8.000, 6.595
			4418.47, 8.100, 6.679
			4533.09, 8.200, 6.762
			4645.77, 8.300, 6.845
			4758.39, 8.400, 6.929
			4867.18, 8.500, 7.012
			4975.67, 8.600, 7.095
			5082.10, 8.700, 7.179
			5188.49, 8.800, 7.262
			5293.50, 8.900, 7.345
			5395.89, 9.000, 7.429
			5497.73, 9.100, 7.512
			5599.56, 9.200, 7.595
			5700.07, 9.300, 7.679
			5800.83, 9.400, 7.762
			5900.21, 9.500, 7.845
			5999.79, 9.600, 7.929
			6098.61, 9.700, 8.012
			6194.51, 9.800, 8.095
			6289.59, 9.900, 8.179
			6383.29, 10.000, 8.262
			6475.00, 10.100, 8.345
			6564.69, 10.200, 8.429
			6652.89, 10.300, 8.512
			6740.05, 10.400, 8.595
			6835.85, 10.500, 8.679
			6924.99, 10.600, 8.762
			7013.48, 10.700, 8.845
			7100.17, 10.800, 8.929
			7188.92, 10.900, 9.012
			7276.63, 11.000, 9.095
			7361.23, 11.100, 9.179
			7446.39, 11.200, 9.262
			7529.40, 11.300, 9.345
			7612.62, 11.400, 9.429
			7695.22, 11.500, 9.512
			7775.37, 11.600, 9.595
			7854.39, 11.700, 9.679
			7933.98, 11.800, 9.762
			8013.05, 11.900, 9.845
			8090.75, 12.000, 9.929
			8167.82, 12.100, 10.012
			8242.76, 12.200, 10.095
			8318.61, 12.300, 10.179
			8392.26, 12.400, 10.262
			8464.63, 12.500, 10.345
			8533.78, 12.600, 10.429
			8602.22, 12.700, 10.512
			8673.42, 12.800, 10.595
			8743.44, 12.900, 10.678
			8813.51, 13.000, 10.762
			8881.33, 13.100, 10.845
			8949.97, 13.200, 10.928
			9018.41, 13.300, 11.012
			9084.85, 13.400, 11.095
			9151.34, 13.500, 11.179
			9214.15, 13.600, 11.262
			9277.16, 13.700, 11.345
			9339.10, 13.800, 11.428
			9401.35, 13.900, 11.512
			9465.18, 14.000, 11.595
			9526.66, 14.100, 11.678
			9586.96, 14.200, 11.762
			9647.31, 14.300, 11.845
			9708.54, 14.400, 11.928
			9768.74, 14.500, 12.012
			9829.30, 14.600, 12.095
			9886.89, 14.700, 12.178
			9945.04, 14.800, 12.262
			10001.71, 14.900, 12.345
			10059.71, 15.000, 12.428
			10118.38, 15.100, 12.512
			10180.52, 15.200, 12.595
			10240.47, 15.300, 12.679
			10298.73, 15.400, 12.762
			10356.16, 15.500, 12.845
			10412.68, 15.600, 12.928
			10469.30, 15.700, 13.012
			10527.20, 15.800, 13.095
			10585.77, 15.900, 13.178
			10643.10, 16.000, 13.262
			10701.26, 16.100, 13.345
			10757.82, 16.200, 13.428
			10815.06, 16.300, 13.512
			10872.34, 16.400, 13.595
			10928.81, 16.500, 13.678
			10985.17, 16.600, 13.762
			11042.00, 16.700, 13.845
			11096.73, 16.800, 13.928
			11152.84, 16.900, 14.012
			11207.56, 17.000, 14.095
			11262.55, 17.100, 14.178
			11318.60, 17.200, 14.262
			11373.13, 17.300, 14.345
			11427.34, 17.400, 14.428
			11482.07, 17.500, 14.512
			11538.08, 17.600, 14.595
			11591.68, 17.700, 14.678
			11644.72, 17.800, 14.762
			11698.37, 17.900, 14.845
			11751.21, 18.000, 14.928
			11804.66, 18.100, 15.012
			11858.77, 18.200, 15.095
			11911.04, 18.300, 15.178
			11964.44, 18.400, 15.262
			12018.20, 18.500, 15.345
			12070.68, 18.600, 15.428
			12123.66, 18.700, 15.512
			12176.40, 18.800, 15.595
			12228.93, 18.900, 15.678
			12282.17, 19.000, 15.762
			12333.78, 19.100, 15.845
			12386.31, 19.200, 15.928
			12438.07, 19.300, 16.012
			12491.31, 19.400, 16.095
			12543.64, 19.500, 16.178
			12596.37, 19.600, 16.262
			12649.61, 19.700, 16.345
			12701.07, 19.800, 16.428
			12752.98, 19.900, 16.512
			12806.23, 20.000, 16.595
			12858.14, 20.100, 16.678
			12911.23, 20.200, 16.762
			12964.32, 20.300, 16.845
			13016.13, 20.400, 16.928
			13069.12, 20.500, 17.012
			13119.91, 20.600, 17.095
			13172.19, 20.700, 17.178
			13223.64, 20.800, 17.261
			13273.92, 20.900, 17.345
			13325.52, 21.000, 17.428
			13378.10, 21.100, 17.512
			13429.20, 21.200, 17.595
			13481.01, 21.300, 17.678
			13537.63, 21.400, 17.762
			13591.34, 21.500, 17.845
			13642.74, 21.600, 17.928
			13694.09, 21.700, 18.012
			13746.21, 21.800, 18.095
			13795.67, 21.900, 18.178
			13846.15, 22.000, 18.262
			13896.02, 22.100, 18.345
			13948.35, 22.200, 18.428
			13997.81, 22.300, 18.512
			14047.73, 22.400, 18.595
			14098.77, 22.500, 18.678
			14149.00, 22.600, 18.761
			14199.79, 22.700, 18.845
			14249.25, 22.800, 18.928
			14298.40, 22.900, 19.012
			14348.68, 23.000, 19.095
			14398.49, 23.100, 19.178
			14449.54, 23.200, 19.262
			14500.02, 23.300, 19.345
			14549.07, 23.400, 19.428
			14597.66, 23.500, 19.512
			14646.71, 23.600, 19.595
			14696.79, 23.700, 19.678
			14745.38, 23.800, 19.762
			14794.58, 23.900, 19.845
			14842.81, 24.000, 19.928
			14892.99, 24.100, 20.012
			14941.37, 24.200, 20.095
			14990.63, 24.300, 20.178
			15041.47, 24.400, 20.262
			15090.47, 24.500, 20.345
			15140.59, 24.600, 20.428
			15190.05, 24.700, 20.511
			15239.77, 24.800, 20.595
			15288.56, 24.900, 20.678
			15335.97, 25.000, 20.762
			15385.74, 25.100, 20.845
			15434.54, 25.200, 20.928
			15483.07, 25.300, 21.011
			15532.28, 25.400, 21.095
			15579.08, 25.500, 21.178
			15627.00, 25.600, 21.262
			15673.04, 25.700, 21.345
			15720.55, 25.800, 21.428
			15766.17, 25.900, 21.512
			15810.83, 26.000, 21.595
			15858.39, 26.100, 21.678
			15905.09, 26.200, 21.762
			15949.54, 26.300, 21.845
			15995.47, 26.400, 21.928
			16041.30, 26.500, 22.012
			16088.05, 26.600, 22.095
			16134.69, 26.700, 22.178
			16182.36, 26.800, 22.261
			16229.01, 26.900, 22.345
			16275.96, 27.000, 22.428
			16322.61, 27.100, 22.511
			16368.28, 27.200, 22.595
			16415.59, 27.300, 22.678
			16462.44, 27.400, 22.761
			16508.94, 27.500, 22.845
			16553.13, 27.600, 22.928
			16599.37, 27.700, 23.012
			16645.04, 27.800, 23.095
			16690.82, 27.900, 23.178
			16735.88, 28.000, 23.261
			16779.35, 28.100, 23.345
			16824.06, 28.200, 23.428
			16872.59, 28.300, 23.511
			16920.57, 28.400, 23.595
			16964.20, 28.500, 23.678
			17009.31, 28.600, 23.761
			17052.79, 28.700, 23.845
			17097.80, 28.800, 23.928
			17141.53, 28.900, 24.011
			17185.31, 29.000, 24.095
			17227.30, 29.100, 24.178
			17271.24, 29.200, 24.261
			17314.25, 29.300, 24.346
			17357.98, 29.400, 24.428
			17399.87, 29.500, 24.511
			17444.01, 29.600, 24.595
			17485.24, 29.700, 24.678
			17528.00, 29.800, 24.761
			17568.61, 29.900, 24.845
			17610.14, 30.000, 24.928
			17649.93, 30.100, 25.011
			17690.49, 30.200, 25.095
			17732.43, 30.300, 25.178
			17774.53, 30.400, 25.261
			17814.58, 30.500, 25.345
			17854.32, 30.600, 25.428
			17894.62, 30.700, 25.511
			17933.49, 30.800, 25.595
			17972.93, 30.900, 25.678
			18013.74, 31.000, 25.761
			18051.59, 31.100, 25.845
			18091.13, 31.200, 25.928
			18130.77, 31.300, 26.011
			18169.74, 31.400, 26.095
			18208.36, 31.500, 26.178
			18246.57, 31.600, 26.261
			18284.06, 31.700, 26.345
			18321.96, 31.800, 26.428
			18358.89, 31.900, 26.511
			18392.34, 32.000, 26.595
			18428.60, 32.100, 26.678
			18465.32, 32.200, 26.761
			18502.15, 32.300, 26.845
			18539.33, 32.400, 26.928
			18575.96, 32.500, 27.011
			18612.88, 32.600, 27.095
			18648.48, 32.700, 27.178
			18683.88, 32.800, 27.261
			18718.66, 32.900, 27.345
			18752.87, 33.000, 27.428
			18786.78, 33.100, 27.511
			18821.72, 33.200, 27.595
			18854.66, 33.300, 27.678
			18887.54, 33.400, 27.762
			18921.20, 33.500, 27.845
			18952.14, 33.600, 27.928
			18982.42, 33.700, 28.011
			19012.45, 33.800, 28.095
			19042.01, 33.900, 28.178
			19071.11, 34.000, 28.261
			19099.04, 34.100, 28.345
			19126.76, 34.200, 28.428
			19153.82, 34.300, 28.511
			19181.80, 34.400, 28.595
			19208.24, 34.500, 28.678
			19234.07, 34.600, 28.761
			19259.03, 34.700, 28.845
			19280.87, 34.800, 28.928
			19305.06, 34.900, 29.011
			19328.90, 35.000, 29.095
			19348.95, 35.100, 29.178
			19368.79, 35.200, 29.261
			19387.20, 35.300, 29.345
			19405.41, 35.400, 29.428
			19424.44, 35.500, 29.511
			19441.01, 35.600, 29.595
			19454.31, 35.700, 29.678
			19470.37, 35.800, 29.761
			19486.89, 35.900, 29.845
			19505.87, 36.000, 29.928
			19523.51, 36.100, 30.011
			19539.62, 36.200, 30.095
			19560.03, 36.300, 30.178
			19580.80, 36.400, 30.261
			19602.43, 36.500, 30.345
			19626.98, 36.600, 30.428
			19654.70, 36.700, 30.511
			19686.93, 36.800, 30.595
			19714.09, 36.900, 30.678
			19741.86, 37.000, 30.761
			19772.19, 37.100, 30.845
			19801.29, 37.200, 30.928
			19831.01, 37.300, 31.011
			19859.50, 37.400, 31.095
			19889.73, 37.500, 31.178
			19920.72, 37.600, 31.261
			19949.26, 37.700, 31.345
			19977.80, 37.800, 31.428
			20002.97, 37.900, 31.511
			20030.02, 38.000, 31.595
			20059.38, 38.100, 31.678
			20086.54, 38.200, 31.761
			20114.21, 38.300, 31.845
			20139.94, 38.400, 31.928
			20164.39, 38.500, 32.011
			20186.94, 38.600, 32.094
			20206.23, 38.700, 32.178
			20227.61, 38.800, 32.261
			20243.82, 38.900, 32.345
			20258.86, 39.000, 32.428
			20269.34, 39.100, 32.511
			20275.79, 39.200, 32.595
			20277.47, 39.300, 32.679
			20270.88, 39.400, 32.761
			20259.78, 39.500, 32.845
			20232.21, 39.600, 32.928
			20182.90, 39.700, 33.011
			20116.56, 39.800, 33.095
			20050.69, 39.900, 33.178
			19989.46, 40.000, 33.261
			19921.34, 40.100, 33.345
			19838.17, 40.200, 33.428
			19735.06, 40.300, 33.511
			19600.79, 40.400, 33.595
			19450.98, 40.500, 33.678
			19348.64, 40.600, 33.761
			19277.24, 40.700, 33.845
			19218.31, 40.800, 33.928
			19164.81, 40.900, 34.011
			19112.24, 41.000, 34.095
			19054.13, 41.100, 34.178
			18980.17, 41.200, 34.261
			18889.28, 41.300, 34.345
			18772.21, 41.400, 34.428
			18651.14, 41.500, 34.511
			18539.08, 41.600, 34.595
			18429.93, 41.700, 34.678
			18319.20, 41.800, 34.761
			18211.38, 41.900, 34.845
			18102.43, 42.000, 34.928
			18001.57, 42.100, 35.011
			17900.86, 42.200, 35.095
			17785.27, 42.300, 35.178
			17650.03, 42.400, 35.261
			17508.31, 42.500, 35.345
			17396.34, 42.600, 35.428
			17305.56, 42.700, 35.511
			17227.45, 42.800, 35.595
			17154.83, 42.900, 35.678
			17084.55, 43.000, 35.761
			17018.26, 43.100, 35.845
			16957.91, 43.200, 35.928
			16903.90, 43.300, 36.011
			16839.35, 43.400, 36.095
			16782.52, 43.500, 36.178
			16729.28, 43.600, 36.262
			16688.11, 43.700, 36.345
			16641.25, 43.800, 36.428
			16587.35, 43.900, 36.511
			16532.92, 44.000, 36.595
			16464.90, 44.100, 36.678
			16387.77, 44.200, 36.761
			16311.76, 44.300, 36.845
			16240.46, 44.400, 36.928
			16167.78, 44.500, 37.012
			16089.84, 44.600, 37.095
			16010.10, 44.700, 37.178
			15924.27, 44.800, 37.261
			15825.15, 44.900, 37.345
			15708.33, 45.000, 37.428
			15560.97, 45.100, 37.511
			15370.96, 45.200, 37.595
			15013.59, 45.300, 37.678
			1112.20, 45.400, 37.762
		EndData
	EndSpecimen
	BeginSpecimen
		SpecimanName, "311-2",  ""
		Comment, "",  ""
		Break, 465,  ""
		Displacement_Peak_Load, 34.281,  "mm"
		Displacement_Peak_Load2, 1.350,  "in"
		LoadCellCapacity, 200000.000,  "N"
		Peak, 410,  ""
		PeakLoad, 21656,  "N"
		PeakLoad2, 4868,  "lbf"
		BeginData
			_Load, _Time, SlackExt
			"N", "s", "mm"
			40.56, 0.200, 0.111
			57.64, 0.300, 0.200
			77.23, 0.400, 0.283
			94.72, 0.500, 0.365
			105.21, 0.600, 0.448
			116.41, 0.700, 0.532
			124.65, 0.800, 0.615
			136.05, 0.900, 0.698
			159.99, 1.000, 0.782
			190.88, 1.100, 0.865
			223.36, 1.200, 0.948
			253.18, 1.300, 1.032
			281.87, 1.400, 1.115
			303.46, 1.500, 1.198
			325.86, 1.600, 1.282
			355.01, 1.700, 1.365
			394.30, 1.800, 1.448
			431.68, 1.900, 1.532
			473.11, 2.000, 1.615
			522.57, 2.100, 1.698
			569.68, 2.200, 1.782
			630.34, 2.300, 1.865
			689.52, 2.400, 1.948
			757.03, 2.500, 2.032
			831.45, 2.600, 2.115
			907.92, 2.700, 2.198
			985.81, 2.800, 2.282
			1065.60, 2.900, 2.365
			1150.00, 3.000, 2.448
			1233.67, 3.100, 2.532
			1301.50, 3.200, 2.615
			1393.10, 3.300, 2.698
			1482.66, 3.400, 2.782
			1575.49, 3.500, 2.865
			1667.40, 3.600, 2.948
			1754.35, 3.700, 3.032
			1850.10, 3.800, 3.115
			1941.09, 3.900, 3.198
			2040.27, 4.000, 3.282
			2141.03, 4.100, 3.365
			2241.53, 4.200, 3.448
			2342.96, 4.300, 3.532
			2450.21, 4.400, 3.615
			2560.85, 4.500, 3.698
			2671.68, 4.600, 3.782
			2771.78, 4.700, 3.865
			2883.53, 4.800, 3.948
			2998.57, 4.900, 4.032
			3111.04, 5.000, 4.115
			3213.64, 5.100, 4.198
			3328.72, 5.200, 4.282
			3440.68, 5.300, 4.365
			3552.29, 5.400, 4.448
			3664.15, 5.500, 4.532
			3777.64, 5.600, 4.615
			3889.65, 5.700, 4.698
			4000.44, 5.800, 4.782
			4112.25, 5.900, 4.865
			4221.60, 6.000, 4.948
			4331.26, 6.100, 5.032
			4440.82, 6.200, 5.115
			4550.02, 6.300, 5.198
			4657.43, 6.400, 5.282
			4762.02, 6.500, 5.365
			4867.34, 6.600, 5.448
			4973.98, 6.700, 5.532
			5079.55, 6.800, 5.615
			5184.60, 6.900, 5.698
			5289.35, 7.000, 5.782
			5391.55, 7.100, 5.865
			5494.61, 7.200, 5.948
			5596.29, 7.300, 6.032
			5693.37, 7.400, 6.115
			5790.55, 7.500, 6.198
			5890.39, 7.600, 6.282
			5988.95, 7.700, 6.365
			6084.03, 7.800, 6.448
			6179.78, 7.900, 6.532
			6274.96, 8.000, 6.615
			6369.33, 8.100, 6.698
			6463.75, 8.200, 6.781
			6556.27, 8.300, 6.865
			6651.05, 8.400, 6.948
			6745.77, 8.500, 7.031
			6837.74, 8.600, 7.115
			6928.63, 8.700, 7.198
			7017.98, 8.800, 7.282
			7105.70, 8.900, 7.365
			7196.23, 9.000, 7.448
			7285.99, 9.100, 7.531
			7373.92, 9.200, 7.615
			7457.49, 9.300, 7.698
			7544.75, 9.400, 7.781
			7631.60, 9.500, 7.865
			7716.91, 9.600, 7.948
			7801.10, 9.700, 8.031
			7885.29, 9.800, 8.115
			7968.96, 9.900, 8.198
			8051.36, 10.000, 8.281
			8132.43, 10.100, 8.365
			8212.68, 10.200, 8.448
			8291.81, 10.300, 8.531
			8368.22, 10.400, 8.615
			8442.64, 10.500, 8.698
			8514.55, 10.600, 8.782
			8589.07, 10.700, 8.865
			8661.35, 10.800, 8.948
			8729.88, 10.900, 9.031
			8805.63, 11.000, 9.115
			8878.26, 11.100, 9.198
			8951.61, 11.200, 9.281
			9023.98, 11.300, 9.365
			9093.18, 11.400, 9.448
			9160.34, 11.500, 9.531
			9227.80, 11.600, 9.615
			9297.67, 11.700, 9.698
			9365.85, 11.800, 9.781
			9433.67, 11.900, 9.865
			9502.72, 12.000, 9.948
			9571.97, 12.100, 10.031
			9640.72, 12.200, 10.115
			9709.25, 12.300, 10.198
			9776.72, 12.400, 10.281
			9844.90, 12.500, 10.365
			9911.03, 12.600, 10.448
			9979.92, 12.700, 10.531
			10049.33, 12.800, 10.615
			10115.00, 12.900, 10.698
			10179.50, 13.000, 10.781
			10246.04, 13.100, 10.865
			10310.90, 13.200, 10.948
			10376.47, 13.300, 11.031
			10441.79, 13.400, 11.115
			10505.72, 13.500, 11.198
			10570.37, 13.600, 11.281
			10633.79, 13.700, 11.365
			10697.11, 13.800, 11.448
			10763.35, 13.900, 11.531
			10825.75, 14.000, 11.615
			10889.84, 14.100, 11.698
			10953.31, 14.200, 11.781
			11016.22, 14.300, 11.865
			11077.44, 14.400, 11.948
			11137.70, 14.500, 12.031
			11198.25, 14.600, 12.115
			11259.53, 14.700, 12.198
			11320.09, 14.800, 12.281
			11381.16, 14.900, 12.365
			11439.62, 15.000, 12.448
			11498.29, 15.100, 12.531
			11557.57, 15.200, 12.615
			11616.79, 15.300, 12.698
			11675.87, 15.400, 12.781
			11731.88, 15.500, 12.865
			11788.96, 15.600, 12.948
			11844.96, 15.700, 13.031
			11902.30, 15.800, 13.115
			11957.95, 15.900, 13.198
			12012.98, 16.000, 13.281
			12068.22, 16.100, 13.365
			12123.66, 16.200, 13.448
			12178.49, 16.300, 13.531
			12233.02, 16.400, 13.615
			12285.44, 16.500, 13.698
			12338.02, 16.600, 13.781
			12389.83, 16.700, 13.865
			12440.98, 16.800, 13.948
			12491.57, 16.900, 14.031
			12540.67, 17.000, 14.115
			12587.78, 17.100, 14.198
			12632.32, 17.200, 14.281
			12674.83, 17.300, 14.365
			12715.39, 17.400, 14.448
			12751.55, 17.500, 14.531
			12786.99, 17.600, 14.615
			12819.42, 17.700, 14.698
			12849.91, 17.800, 14.781
			12879.67, 17.900, 14.865
			12931.79, 18.000, 14.948
			12990.00, 18.100, 15.031
			13048.25, 18.200, 15.115
			13106.00, 18.300, 15.198
			13161.75, 18.400, 15.281
			13217.71, 18.500, 15.365
			13271.97, 18.600, 15.448
			13327.11, 18.700, 15.531
			13386.39, 18.800, 15.614
			13441.89, 18.900, 15.698
			13498.10, 19.000, 15.781
			13552.67, 19.100, 15.864
			13608.47, 19.200, 15.948
			13663.81, 19.300, 16.031
			13718.29, 19.400, 16.115
			13773.68, 19.500, 16.198
			13827.43, 19.600, 16.281
			13881.50, 19.700, 16.365
			13935.51, 19.800, 16.448
			13989.47, 19.900, 16.531
			14044.45, 20.000, 16.614
			14098.36, 20.100, 16.698
			14151.25, 20.200, 16.781
			14204.80, 20.300, 16.865
			14257.94, 20.400, 16.948
			14310.52, 20.500, 17.031
			14362.74, 20.600, 17.114
			14414.71, 20.700, 17.198
			14465.80, 20.800, 17.281
			14518.90, 20.900, 17.365
			14570.45, 21.000, 17.448
			14622.37, 21.100, 17.531
			14673.87, 21.200, 17.614
			14724.35, 21.300, 17.698
			14777.04, 21.400, 17.781
			14831.35, 21.500, 17.864
			14885.01, 21.600, 17.948
			14938.25, 21.700, 18.031
			14991.91, 21.800, 18.114
			15047.76, 21.900, 18.198
			15100.65, 22.000, 18.281
			15154.30, 22.100, 18.365
			15207.54, 22.200, 18.448
			15259.41, 22.300, 18.531
			15311.93, 22.400, 18.614
			15364.31, 22.500, 18.698
			15415.25, 22.600, 18.781
			15467.12, 22.700, 18.864
			15517.65, 22.800, 18.948
			15570.13, 22.900, 19.031
			15621.58, 23.000, 19.114
			15671.81, 23.100, 19.198
			15724.23, 23.200, 19.281
			15773.64, 23.300, 19.364
			15824.84, 23.400, 19.448
			15874.71, 23.500, 19.531
			15924.68, 23.600, 19.614
			15973.68, 23.700, 19.698
			16023.55, 23.800, 19.781
			16071.73, 23.900, 19.864
			16121.90, 24.000, 19.948
			16172.18, 24.100, 20.031
			16221.49, 24.200, 20.114
			16269.98, 24.300, 20.198
			16317.70, 24.400, 20.281
			16366.18, 24.500, 20.364
			16416.31, 24.600, 20.448
			16462.49, 24.700, 20.531
			16510.27, 24.800, 20.614
			16558.96, 24.900, 20.698
			16607.40, 25.000, 20.781
			16654.76, 25.100, 20.864
			16705.09, 25.200, 20.948
			16754.60, 25.300, 21.031
			16801.50, 25.400, 21.114
			16849.53, 25.500, 21.198
			16894.79, 25.600, 21.281
			16940.36, 25.700, 21.365
			16987.37, 25.800, 21.448
			17033.40, 25.900, 21.531
			17079.49, 26.000, 21.614
			17124.34, 26.100, 21.698
			17170.73, 26.200, 21.781
			17216.87, 26.300, 21.864
			17260.39, 26.400, 21.948
			17307.09, 26.500, 22.031
			17351.59, 26.600, 22.114
			17396.09, 26.700, 22.198
			17440.18, 26.800, 22.281
			17484.01, 26.900, 22.364
			17528.71, 27.000, 22.448
			17573.06, 27.100, 22.531
			17618.12, 27.200, 22.614
			17661.39, 27.300, 22.698
			17705.43, 27.400, 22.781
			17749.62, 27.500, 22.864
			17793.40, 27.600, 22.948
			17835.09, 27.700, 23.031
			17878.20, 27.800, 23.114
			17918.86, 27.900, 23.198
			17961.16, 28.000, 23.281
			18001.72, 28.100, 23.364
			18043.51, 28.200, 23.448
			18086.68, 28.300, 23.531
			18128.11, 28.400, 23.614
			18170.56, 28.500, 23.698
			18213.12, 28.600, 23.781
			18252.96, 28.700, 23.864
			18293.78, 28.800, 23.948
			18335.41, 28.900, 24.031
			18376.22, 29.000, 24.114
			18417.71, 29.100, 24.198
			18458.57, 29.200, 24.281
			18498.93, 29.300, 24.364
			18539.49, 29.400, 24.448
			18579.08, 29.500, 24.531
			18619.23, 29.600, 24.614
			18658.92, 29.700, 24.698
			18698.15, 29.800, 24.781
			18738.40, 29.900, 24.864
			18775.84, 30.000, 24.948
			18816.50, 30.100, 25.031
			18854.09, 30.200, 25.114
			18891.33, 30.300, 25.198
			18930.56, 30.400, 25.281
			18968.26, 30.500, 25.364
			19007.03, 30.600, 25.448
			19045.23, 30.700, 25.531
			19081.80, 30.800, 25.614
			19118.12, 30.900, 25.698
			19155.40, 31.000, 25.781
			19193.97, 31.100, 25.864
			19231.10, 31.200, 25.948
			19268.75, 31.300, 26.031
			19305.21, 31.400, 26.114
			19341.89, 31.500, 26.197
			19377.08, 31.600, 26.281
			19413.75, 31.700, 26.364
			19446.89, 31.800, 26.448
			19482.54, 31.900, 26.531
			19519.68, 32.000, 26.614
			19553.69, 32.100, 26.698
			19590.00, 32.200, 26.781
			19623.81, 32.300, 26.864
			19658.85, 32.400, 26.948
			19693.17, 32.500, 27.031
			19727.13, 32.600, 27.114
			19762.42, 32.700, 27.198
			19795.15, 32.800, 27.281
			19828.61, 32.900, 27.364
			19860.73, 33.000, 27.448
			19893.10, 33.100, 27.531
			19926.71, 33.200, 27.614
			19960.31, 33.300, 27.697
			19992.07, 33.400, 27.781
			20023.63, 33.500, 27.864
			20060.15, 33.600, 27.948
			20093.55, 33.700, 28.031
			20124.59, 33.800, 28.114
			20154.82, 33.900, 28.198
			20186.07, 34.000, 28.281
			20215.43, 34.100, 28.364
			20245.66, 34.200, 28.447
			20275.53, 34.300, 28.531
			20303.41, 34.400, 28.614
			20331.95, 34.500, 28.698
			20359.51, 34.600, 28.781
			20387.95, 34.700, 28.864
			20415.37, 34.800, 28.947
			20442.63, 34.900, 29.031
			20468.66, 35.000, 29.114
			20495.92, 35.100, 29.198
			20522.83, 35.200, 29.281
			20550.24, 35.300, 29.364
			20574.44, 35.400, 29.448
			20600.42, 35.500, 29.531
			20627.32, 35.600, 29.614
			20652.08, 35.700, 29.698
			20677.70, 35.800, 29.781
			20700.72, 35.900, 29.864
			20724.76, 36.000, 29.947
			20750.49, 36.100, 30.031
			20774.37, 36.200, 30.114
			20801.33, 36.300, 30.198
			20824.55, 36.400, 30.281
			20849.71, 36.500, 30.364
			20875.18, 36.600, 30.447
			20897.33, 36.700, 30.531
			20922.60, 36.800, 30.614
			20946.69, 36.900, 30.697
			20969.29, 37.000, 30.781
			20993.13, 37.100, 30.864
			21014.97, 37.200, 30.948
			21038.44, 37.300, 31.031
			21060.69, 37.400, 31.114
			21080.64, 37.500, 31.198
			21101.10, 37.600, 31.281
			21119.36, 37.700, 31.364
			21138.85, 37.800, 31.447
			21155.37, 37.900, 31.531
			21169.64, 38.000, 31.614
			21183.35, 38.100, 31.698
			21195.52, 38.200, 31.781
			21204.32, 38.300, 31.864
			21210.40, 38.400, 31.947
			21209.43, 38.500, 32.031
			21202.37, 38.600, 32.114
			21188.41, 38.700, 32.197
			21168.31, 38.800, 32.281
			21149.64, 38.900, 32.364
			21138.39, 39.000, 32.447
			21141.61, 39.100, 32.531
			21148.97, 39.200, 32.614
			21161.91, 39.300, 32.698
			21185.08, 39.400, 32.781
			21215.67, 39.500, 32.864
			21248.61, 39.600, 32.947
			21285.13, 39.700, 33.031
			21321.34, 39.800, 33.114
			21355.20, 39.900, 33.198
			21386.81, 40.000, 33.281
			21417.09, 40.100, 33.364
			21445.17, 40.200, 33.448
			21471.87, 40.300, 33.531
			21496.52, 40.400, 33.614
			21521.48, 40.500, 33.697
			21543.22, 40.600, 33.781
			21564.50, 40.700, 33.864
			21583.16, 40.800, 33.947
			21609.76, 40.900, 34.031
			21635.23, 41.000, 34.114
			21650.01, 41.100, 34.198
			21655.59, 41.200, 34.281
			21651.75, 41.300, 34.364
			21635.90, 41.400, 34.447
			21604.44, 41.500, 34.531
			21569.30, 41.600, 34.614
			21535.60, 41.700, 34.697
			21510.13, 41.800, 34.781
			21489.00, 41.900, 34.864
			21463.99, 42.000, 34.948
			21433.30, 42.100, 35.031
			21393.10, 42.200, 35.114
			21336.28, 42.300, 35.197
			21259.15, 42.400, 35.281
			21135.01, 42.500, 35.364
			20916.61, 42.600, 35.447
			20660.16, 42.700, 35.531
			20396.95, 42.800, 35.614
			20190.52, 42.900, 35.698
			20010.79, 43.000, 35.781
			19889.88, 43.100, 35.864
			19812.08, 43.200, 35.947
			19738.89, 43.300, 36.031
			19644.99, 43.400, 36.114
			19551.39, 43.500, 36.197
			19447.61, 43.600, 36.281
			19334.68, 43.700, 36.364
			19227.78, 43.800, 36.448
			19115.61, 43.900, 36.531
			19006.92, 44.000, 36.614
			18920.38, 44.100, 36.698
			18840.69, 44.200, 36.781
			18750.42, 44.300, 36.864
			18647.97, 44.400, 36.948
			18545.27, 44.500, 37.031
			18445.38, 44.600, 37.114
			18334.28, 44.700, 37.198
			18246.46, 44.800, 37.281
			18160.28, 44.900, 37.364
			18061.51, 45.000, 37.448
			17970.52, 45.100, 37.531
			17866.08, 45.200, 37.614
			17750.64, 45.300, 37.698
			17636.63, 45.400, 37.781
			17530.50, 45.500, 37.864
			17413.22, 45.600, 37.948
			17286.79, 45.700, 38.031
			17163.32, 45.800, 38.114
			17047.93, 45.900, 38.198
			16931.67, 46.000, 38.281
			16808.40, 46.100, 38.364
			16685.09, 46.200, 38.448
			16563.31, 46.300, 38.531
			16451.09, 46.400, 38.614
			16345.01, 46.500, 38.698
			16236.78, 46.600, 38.781
			16112.75, 46.700, 38.864
			15968.00, 46.800, 38.948
			15811.54, 46.900, 39.031
			15627.97, 47.000, 39.114
			15346.10, 47.100, 39.198
			13925.64, 47.200, 39.282
			1270.14, 47.270, 39.340
		EndData
	EndSpecimen
EndSample
